* Sea-Bird SBE19plus  Data File:
* FileName = C:\DATA\082718_fcr_0004.hex
* Software version 2.6.3.104
* Temperature SN = 7809
* Conductivity SN = 7809
* System UpLoad Time = Aug 27 2018 20:56:24
* <ApplicationData>
* <Seaterm232>
* <SoftwareVersion>2.6.3.104</SoftwareVersion>
* <BuildDate>30-Jun-2017</BuildDate>
* </Seaterm232>
* </ApplicationData>
* <InstrumentState>
* <HardwareData DeviceType='SBE19plus' SerialNumber='01907809'>
*
*    <Manufacturer>Sea-Bird Electronics, Inc.</Manufacturer>
*
*    <FirmwareVersion>3.1.8</FirmwareVersion>
*
*    <FirmwareDate>Mar  9 2016 16:22:29</FirmwareDate>
*
*    <CommandSetVersion>1.4</CommandSetVersion>
*
*    <PCBAssembly PCBSerialNum='120721' AssemblyNum='41054J'/>
*
*    <PCBAssembly PCBSerialNum='120715' AssemblyNum='41967A'/>
*
*    <PCBAssembly PCBSerialNum='116699' AssemblyNum='41606'/>
*
*    <PCBAssembly PCBSerialNum='120719' AssemblyNum='41059D'/>
*
*    <MfgDate>28-Apr-2017</MfgDate>
*
*    <InternalSensors>
*
*       <Sensor id='Main Temperature'>
*
*          <type>temperature0</type>
*
*          <SerialNumber>01907809</SerialNumber>
*
*       </Sensor>
*
*       <Sensor id='Main Conductivity'>
*
*          <type>conductivity-0</type>
*
*          <SerialNumber>01907809</SerialNumber>
*
*       </Sensor>
*
*       <Sensor id='Main Pressure'>
*
*          <type>strain-0</type>
*
*          <SerialNumber>10586018</SerialNumber>
*
*       </Sensor>
*
*    </InternalSensors>
*
*    <ExternalSensors>
*
*       <Sensor id='volt 0'>
*
*          <type>pH</type>
*
*          <SerialNumber>27-0363</SerialNumber>
*
*       </Sensor>
*
*       <Sensor id='volt 1'>
*
*          <type>ORP</type>
*
*          <SerialNumber>27-0363</SerialNumber>
*
*       </Sensor>
*
*       <Sensor id='volt 2'>
*
*          <type>OXY</type>
*
*          <SerialNumber>43-0434</SerialNumber>
*
*       </Sensor>
*
*       <Sensor id='volt 3'>
*
*          <type>PAR</type>
*
*          <SerialNumber>1122</SerialNumber>
*
*       </Sensor>
*
*       <Sensor id='volt 4'>
*
*          <type>ECO AFL/FL</type>
*
*          <SerialNumber>FLNTURT-2496</SerialNumber>
*
*       </Sensor>
*
*       <Sensor id='volt 5'>
*
*          <type>ECO-NTU</type>
*
*          <SerialNumber>FLNTURT-2496</SerialNumber>
*
*       </Sensor>
*
*       <Sensor id='serial'>
*
*          <type>not assigned</type>
*
*          <SerialNumber>not assigned</SerialNumber>
*
*       </Sensor>
*
*    </ExternalSensors>
*
* </HardwareData>
* <StatusData DeviceType='SBE19plus' SerialNumber='01907809'>
*
*    <DateTime>2018-08-28T00:54:17</DateTime>
*
*    <LoggingState>not logging</LoggingState>
*
*    <EventSummary numEvents='0'/>
*
*    <Power>
*
*       <vMain>12.9</vMain>
*
*       <vLith>8.8</vLith>
*
*       <iMain>63.3</iMain>
*
*       <iPump>41.6</iPump>
*
*       <iExt01>13.8</iExt01>
*
*       <iExt2345>42.0</iExt2345>
*
*    </Power>
*
*    <MemorySummary>
*
*       <Bytes>168268</Bytes>
*
*       <Samples>7316</Samples>
*
*       <SamplesFree>2853472</SamplesFree>
*
*       <SampleLength>23</SampleLength>
*
*       <Profiles>7</Profiles>
*
*    </MemorySummary>
*
* </StatusData>
* <ConfigurationData DeviceType='SBE19plus' SerialNumber='01907809'>
*
*    <ProfileMode>
*
*       <ScansToAverage>1</ScansToAverage>
*
*       <MinimumCondFreq>5</MinimumCondFreq>
*
*       <PumpDelay>45</PumpDelay>
*
*       <AutoRun>no</AutoRun>
*
*       <IgnoreSwitch>no</IgnoreSwitch>
*
*    </ProfileMode>
*
*    <Battery>
*
*       <Type>alkaline</Type>
*
*       <CutOff>7.5</CutOff>
*
*    </Battery>
*
*    <DataChannels>
*
*       <ExtVolt0>yes</ExtVolt0>
*
*       <ExtVolt1>yes</ExtVolt1>
*
*       <ExtVolt2>yes</ExtVolt2>
*
*       <ExtVolt3>yes</ExtVolt3>
*
*       <ExtVolt4>yes</ExtVolt4>
*
*       <ExtVolt5>yes</ExtVolt5>
*
*       <SBE38>no</SBE38>
*
*       <WETLABS>no</WETLABS>
*
*       <OPTODE>no</OPTODE>
*
*       <SBE63>no</SBE63>
*
*       <SeaFET>no</SeaFET>
*
*       <GTD>no</GTD>
*
*    </DataChannels>
*
*    <EchoCharacters>yes</EchoCharacters>
*
*    <OutputExecutedTag>yes</OutputExecutedTag>
*
*    <OutputFormat>raw HEX</OutputFormat>
*
* </ConfigurationData>
* <CalibrationCoefficients DeviceType='SBE19plus' SerialNumber='01907809'>
*
*    <Calibration format='TEMP1' id='Main Temperature'>
*
*       <SerialNum>01907809</SerialNum>
*
*       <CalDate>09-Mar-18</CalDate>
*
*       <TA0>1.210932e-03</TA0>
*
*       <TA1>2.843566e-04</TA1>
*
*       <TA2>-1.945074e-06</TA2>
*
*       <TA3>2.128067e-07</TA3>
*
*       <TOFFSET>0.000000e+00</TOFFSET>
*
*    </Calibration>
*
*    <Calibration format='WBCOND0' id='Main Conductivity'>
*
*       <SerialNum>01907809</SerialNum>
*
*       <CalDate>09-Mar-18</CalDate>
*
*       <G>-1.006721e+00</G>
*
*       <H>1.269065e-01</H>
*
*       <I>-1.405844e-04</I>
*
*       <J>2.478371e-05</J>
*
*       <CPCOR>-9.570000e-08</CPCOR>
*
*       <CTCOR>3.250000e-06</CTCOR>
*
*       <CSLOPE>1.000000e+00</CSLOPE>
*
*    </Calibration>
*
*    <Calibration format='STRAIN0' id='Main Pressure'>
*
*       <SerialNum>10586018</SerialNum>
*
*       <CalDate>07-Mar-18</CalDate>
*
*       <PA0>-4.081764e-02</PA0>
*
*       <PA1>4.851884e-04</PA1>
*
*       <PA2>-3.511682e-12</PA2>
*
*       <PTCA0>5.252134e+05</PTCA0>
*
*       <PTCA1>1.795324e+00</PTCA1>
*
*       <PTCA2>-2.843535e-01</PTCA2>
*
*       <PTCB0>2.516687e+01</PTCB0>
*
*       <PTCB1>3.750000e-04</PTCB1>
*
*       <PTCB2>0.000000e+00</PTCB2>
*
*       <PTEMPA0>-5.378069e+01</PTEMPA0>
*
*       <PTEMPA1>5.366207e+01</PTEMPA1>
*
*       <PTEMPA2>4.872143e-02</PTEMPA2>
*
*       <POFFSET>5.000000e-01</POFFSET>
*
*       <PRANGE>1.600000e+02</PRANGE>
*
*    </Calibration>
*
*    <Calibration format='VOLT0' id='Volt 0'>
*
*       <OFFSET>-4.920000e-02</OFFSET>
*
*       <SLOPE>1.248122e+00</SLOPE>
*
*    </Calibration>
*
*    <Calibration format='VOLT0' id='Volt 1'>
*
*       <OFFSET>-4.784000e-02</OFFSET>
*
*       <SLOPE>1.248871e+00</SLOPE>
*
*    </Calibration>
*
*    <Calibration format='VOLT0' id='Volt 2'>
*
*       <OFFSET>-4.864632e-02</OFFSET>
*
*       <SLOPE>1.248714e+00</SLOPE>
*
*    </Calibration>
*
*    <Calibration format='VOLT0' id='Volt 3'>
*
*       <OFFSET>-4.743790e-02</OFFSET>
*
*       <SLOPE>1.248571e+00</SLOPE>
*
*    </Calibration>
*
*    <Calibration format='VOLT0' id='Volt 4'>
*
*       <OFFSET>-4.671263e-02</OFFSET>
*
*       <SLOPE>1.248951e+00</SLOPE>
*
*    </Calibration>
*
*    <Calibration format='VOLT0' id='Volt 5'>
*
*       <OFFSET>-4.871053e-02</OFFSET>
*
*       <SLOPE>1.249136e+00</SLOPE>
*
*    </Calibration>
*
*    <Calibration format='FREQ0' id='external frequency channel'>
*
*       <EXTFREQSF>1.000014e+00</EXTFREQSF>
*
*    </Calibration>
*
* </CalibrationCoefficients>
* <EventCounters DeviceType='SBE19plus' SerialNumber='01907809'>
*
*    <EventSummary numEvents='0'/>
*
* </EventCounters></InstrumentState>
* <Headers>
*
* cast   4 27 Aug 2018 19:08:18 samples 3875 to 4491, avg = 1, stop = mag switch
*
# nquan = 17
# nvalues = 550                         
# units = specified
# name 0 = depFM: Depth [fresh water, m]
# name 1 = tv290C: Temperature [ITS-90, deg C]
# name 2 = sbeox0Mg/L: Oxygen, SBE 43 [mg/l]
# name 3 = sbeox0PS: Oxygen, SBE 43 [% saturation]
# name 4 = c0uS/cm: Conductivity [uS/cm]
# name 5 = specc: Specific Conductance [uS/cm]
# name 6 = ph: pH
# name 7 = orp: Oxidation Reduction Potential [mV]
# name 8 = flECO-AFL: Fluorescence, WET Labs ECO-AFL/FL [mg/m^3]
# name 9 = turbWETntu0: Turbidity, WET Labs ECO [NTU]
# name 10 = sal00: Salinity, Practical [PSU]
# name 11 = dz/dtM: Descent Rate [m/s]
# name 12 = prdM: Pressure, Strain Gauge [db]
# name 13 = prdE: Pressure, Strain Gauge [psi]
# name 14 = scan: Scan Count
# name 15 = par/sat/log: PAR/Logarithmic, Satlantic
# name 16 = flag:  0.000e+00
# span 0 =     -0.501,      2.226       
# span 1 =    23.6657,    30.1204       
# span 2 =     5.2657,    10.4638       
# span 3 =     66.648,    130.209       
# span 4 =   0.453081,  38.733745       
# span 5 =      0.564,     38.021       
# span 6 =      6.431,      8.612       
# span 7 =  -837.3765,  1240.2295       
# span 8 =    -0.1860,     8.6413       
# span 9 =    -0.3317,    70.5678       
# span 10 =     0.0135,     0.0251      
# span 11 =     -0.136,      0.167      
# span 12 =     -0.491,      2.183      
# span 13 =     -0.712,      3.166      
# span 14 =          1,        550      
# span 15 = 1.3758e+02, 2.6528e+03      
# span 16 = 0.0000e+00, 0.0000e+00      
# interval = seconds: 0.25
# start_time = Aug 27 2018 19:08:18 [Instrument's time stamp, header]
# bad_flag = -9.990e-29
# <Sensors count="9" >
#   <sensor Channel="1" >
#     <!-- Count, Temperature -->
#     <TemperatureSensor SensorID="58" >
#       <SerialNumber>7809</SerialNumber>
#       <CalibrationDate>09-Mar-18</CalibrationDate>
#       <A0>1.21093245e-003</A0>
#       <A1>2.84356597e-004</A1>
#       <A2>-1.94507398e-006</A2>
#       <A3>2.12806664e-007</A3>
#       <Slope>1.00000000</Slope>
#       <Offset>0.0000</Offset>
#     </TemperatureSensor>
#   </sensor>
#   <sensor Channel="2" >
#     <!-- Frequency 0, Conductivity -->
#     <ConductivitySensor SensorID="3" >
#       <SerialNumber>7809</SerialNumber>
#       <CalibrationDate>09-Mar-18</CalibrationDate>
#       <UseG_J>1</UseG_J>
#       <!-- Cell const and series R are applicable only for wide range sensors. -->
#       <SeriesR>0.0000</SeriesR>
#       <CellConst>2000.0000</CellConst>
#       <ConductivityType>0</ConductivityType>
#       <Coefficients equation="0" >
#         <A>0.00000000e+000</A>
#         <B>0.00000000e+000</B>
#         <C>0.00000000e+000</C>
#         <D>0.00000000e+000</D>
#         <M>0.0</M>
#         <CPcor>-9.57000000e-008</CPcor>
#       </Coefficients>
#       <Coefficients equation="1" >
#         <G>-1.00672082e+000</G>
#         <H>1.26906489e-001</H>
#         <I>-1.40584351e-004</I>
#         <J>2.47837121e-005</J>
#         <CPcor>-9.57000000e-008</CPcor>
#         <CTcor>3.2500e-006</CTcor>
#         <!-- WBOTC not applicable unless ConductivityType = 1. -->
#         <WBOTC>0.00000000e+000</WBOTC>
#       </Coefficients>
#       <Slope>1.00000000</Slope>
#       <Offset>0.00000</Offset>
#     </ConductivitySensor>
#   </sensor>
#   <sensor Channel="3" >
#     <!-- Count, Pressure, Strain Gauge -->
#     <PressureSensor SensorID="46" >
#       <SerialNumber>7809</SerialNumber>
#       <CalibrationDate>07-Mar-18</CalibrationDate>
#       <PA0>-4.08176359e-002</PA0>
#       <PA1>4.85188419e-004</PA1>
#       <PA2>-3.51168169e-012</PA2>
#       <PTEMPA0>-5.37806900e+001</PTEMPA0>
#       <PTEMPA1>5.36620721e+001</PTEMPA1>
#       <PTEMPA2>4.87214332e-002</PTEMPA2>
#       <PTCA0>5.25213435e+005</PTCA0>
#       <PTCA1>1.79532409e+000</PTCA1>
#       <PTCA2>-2.84353509e-001</PTCA2>
#       <PTCB0>2.51668750e+001</PTCB0>
#       <PTCB1>3.75000000e-004</PTCB1>
#       <PTCB2>0.00000000e+000</PTCB2>
#       <Offset>0.000000</Offset>
#     </PressureSensor>
#   </sensor>
#   <sensor Channel="4" >
#     <!-- A/D voltage 0, pH -->
#     <pH_Sensor SensorID="43" >
#       <SerialNumber>0363</SerialNumber>
#       <CalibrationDate>16-Mar-18</CalibrationDate>
#       <Slope>4.6194</Slope>
#       <Offset>2.5947</Offset>
#     </pH_Sensor>
#   </sensor>
#   <sensor Channel="5" >
#     <!-- A/D voltage 1, Oxidation Reduction Potential -->
#     <OxidationReductionPotentialSensor SensorID="41" >
#       <SerialNumber>0363</SerialNumber>
#       <CalibrationDate>16-Mar-18</CalibrationDate>
#       <B>2.499480</B>
#       <M>-0.496195</M>
#       <Offset>0.0</Offset>
#     </OxidationReductionPotentialSensor>
#   </sensor>
#   <sensor Channel="6" >
#     <!-- A/D voltage 2, Oxygen, SBE 43 -->
#     <OxygenSensor SensorID="38" >
#       <SerialNumber>0434</SerialNumber>
#       <CalibrationDate>13-Mar-18</CalibrationDate>
#       <Use2007Equation>1</Use2007Equation>
#       <CalibrationCoefficients equation="0" >
#         <!-- Coefficients for Owens-Millard equation. -->
#         <Boc>0.0000</Boc>
#         <Soc>0.0000e+000</Soc>
#         <offset>0.0000</offset>
#         <Pcor>0.00e+000</Pcor>
#         <Tcor>0.0000</Tcor>
#         <Tau>0.0</Tau>
#       </CalibrationCoefficients>
#       <CalibrationCoefficients equation="1" >
#         <!-- Coefficients for Sea-Bird equation - SBE calibration in 2007 and later. -->
#         <Soc>4.5718e-001</Soc>
#         <offset>-0.6113</offset>
#         <A>-4.0649e-003</A>
#         <B> 2.0945e-004</B>
#         <C>-3.3182e-006</C>
#         <D0> 2.5826e+000</D0>
#         <D1> 1.92634e-004</D1>
#         <D2>-4.64803e-002</D2>
#         <E> 3.6000e-002</E>
#         <Tau20> 1.2200</Tau20>
#         <H1>-3.3000e-002</H1>
#         <H2> 5.0000e+003</H2>
#         <H3> 1.4500e+003</H3>
#       </CalibrationCoefficients>
#     </OxygenSensor>
#   </sensor>
#   <sensor Channel="7" >
#     <!-- A/D voltage 3, PAR/Logarithmic, Satlantic -->
#     <PARLog_SatlanticSensor SensorID="76" >
#       <SerialNumber>1122</SerialNumber>
#       <CalibrationDate>22-Jun-2017</CalibrationDate>
#       <a0>9.6090e-001</a0>
#       <a1>8.0780e-001</a1>
#       <Im>1.3589e+000</Im>
#       <Multiplier>1.0000e+000</Multiplier>
#     </PARLog_SatlanticSensor>
#   </sensor>
#   <sensor Channel="8" >
#     <!-- A/D voltage 4, Fluorometer, WET Labs ECO-AFL/FL -->
#     <FluoroWetlabECO_AFL_FL_Sensor SensorID="20" >
#       <SerialNumber>FLNTURT-2496</SerialNumber>
#       <CalibrationDate>25-Jan-2017</CalibrationDate>
#       <ScaleFactor>5.30000000e+001</ScaleFactor>
#       <!-- Dark output -->
#       <Vblank>0.0560</Vblank>
#     </FluoroWetlabECO_AFL_FL_Sensor>
#   </sensor>
#   <sensor Channel="9" >
#     <!-- A/D voltage 5, Turbidity Meter, WET Labs, ECO-NTU -->
#     <TurbidityMeter SensorID="67" >
#       <SerialNumber>FLNTURT-2496</SerialNumber>
#       <CalibrationDate>25-Jan-2017</CalibrationDate>
#       <ScaleFactor>176.000000</ScaleFactor>
#       <!-- Dark output -->
#       <DarkVoltage>0.072000</DarkVoltage>
#     </TurbidityMeter>
#   </sensor>
# </Sensors>
# datcnv_date = Aug 27 2018 21:10:56, 7.26.7.114 [datcnv_vars = 16]
# datcnv_in = C:\DATA\082718_fcr10.hex C:\DATA\SBE19plusV2_7809.xmlcon
# datcnv_skipover = 0
# datcnv_ox_hysteresis_correction = yes
# datcnv_ox_tau_correction = yes
# filter_date = Aug 27 2018 21:11:27, 7.26.7.114
# filter_in = C:\DATA\082718_fcr10.cnv
# filter_low_pass_tc_A = 0.030
# filter_low_pass_tc_B = 0.150
# filter_low_pass_A_vars = tv290C c0uS/cm par/sat/log
# filter_low_pass_B_vars = prdM prdE
# alignctd_date = Aug 27 2018 21:11:52, 7.26.7.114
# alignctd_in = C:\DATA\082718_fcr10.cnv
# alignctd_adv = tv290C 0.500, sbeox0Mg/L 3.000, sbeox0PS 3.000                                                                                                                                                                      
# file_type = ascii
*END*
     -0.501    30.1204     8.0459    101.492   0.771873      0.690      6.436  -837.3765    -0.1819    -0.2646     0.0136      0.000     -0.491     -0.712          1 4.7970e+02 0.0000e+00
     -0.500    30.0984     8.0699    101.546   0.712598      0.665      6.437  -819.9622    -0.1860    -0.2243     0.0136      0.000     -0.491     -0.712          2 6.3468e+02 0.0000e+00
     -0.501    30.0965     8.0910    101.653   0.768244      0.665      6.434  -834.3479    -0.1698    -0.2377     0.0136      0.000     -0.491     -0.712          3 6.7816e+02 0.0000e+00
     -0.501    30.0173     8.1164    101.892   0.673017      0.665      6.433  -765.2584    -0.1698    -0.0632     0.0135      0.000     -0.491     -0.712          4 6.5769e+02 0.0000e+00
     -0.500    29.4960     8.1411    102.157   0.831108      0.665      6.432  -812.6936    -0.1738    -0.0632     0.0135      0.000     -0.486     -0.705          5 6.0508e+02 0.0000e+00
     -0.486    28.7779     8.1610    102.368   0.453081      0.564      6.431  -779.7956    -0.1658    -0.0766     0.0135      0.004     -0.467     -0.677          6 5.8309e+02 0.0000e+00
     -0.441    28.2572     8.0560    101.014   8.635142      7.251      6.938  1240.2295    -0.1496    -0.0766     0.0146      0.019     -0.426     -0.617          7 5.7024e+02 0.0000e+00
     -0.373    27.9069     7.9458     99.615  28.063120     26.691      7.339  1240.2295    -0.1738    -0.0766     0.0213      0.047     -0.367     -0.532          8 4.5284e+02 0.0000e+00
     -0.308    27.6640     7.9073     99.131  38.386279     36.000      7.791   278.8824    -0.1536    -0.2377     0.0249      0.084     -0.309     -0.449          9 4.3187e+02 0.0000e+00
     -0.267    27.4536     7.9510     99.663  38.295984     36.215      8.057   243.8645    -0.1617    -0.2914     0.0249      0.119     -0.267     -0.387         10 4.6139e+02 0.0000e+00
     -0.239    27.2771     7.9750     99.953  38.287783     36.324      8.223   260.8245    -0.1698    -0.3317     0.0249      0.147     -0.237     -0.344         11 4.8266e+02 0.0000e+00
     -0.222    27.1433     7.9100     99.138  38.307639     36.527      8.325   255.3731    -0.1577    -0.2780     0.0249      0.162     -0.212     -0.308         12 4.5426e+02 0.0000e+00
     -0.189    27.0546     7.7724     97.424  38.449355     36.755      8.421   203.2815     2.0866    70.4335     0.0249      0.167     -0.181     -0.262         13 4.0673e+02 0.0000e+00
     -0.142    27.0112     7.6609     96.037  38.586099     37.012      8.472   195.3315     2.0866    70.5678     0.0250      0.164     -0.146     -0.211         14 4.0394e+02 0.0000e+00
     -0.118    26.9861     7.5780     95.019  38.641785     37.101      8.446   232.0151     2.0623    70.5141     0.0250      0.149     -0.118     -0.172         15 4.4806e+02 0.0000e+00
     -0.101    26.9655     7.5031     94.079  38.617398     37.132      8.410   231.0309     2.0785    70.5141     0.0250      0.128     -0.100     -0.147         16 5.1925e+02 0.0000e+00
     -0.089    26.9445     7.4267     93.083  38.586813     37.096      8.378   233.2644     3.7647     1.0648     0.0250      0.111     -0.088     -0.129         17 4.9465e+02 0.0000e+00
     -0.083    26.9357     7.4806     93.698  38.620538     37.164      8.364   191.5457     3.7566     1.1453     0.0250      0.098     -0.078     -0.113         18 4.9228e+02 0.0000e+00
     -0.065    26.9338     7.6681     95.980  38.605102     37.152      8.365   179.4693     3.7606     1.0648     0.0250      0.088     -0.064     -0.093         19 5.0987e+02 0.0000e+00
     -0.048    26.9259     7.9185     99.050  38.576371     37.132      8.363   178.1064     3.7525     1.0379     0.0250      0.079     -0.049     -0.071         20 5.0384e+02 0.0000e+00
     -0.038    26.9193     8.1341    101.726  38.626635     37.186      8.367   175.1914     3.8132     1.0648     0.0250      0.066     -0.038     -0.054         21 5.1700e+02 0.0000e+00
     -0.027    26.9199     8.2716    103.435  38.690861     37.247      8.359   174.3964     3.8374     1.0916     0.0251      0.054     -0.028     -0.040         22 5.3232e+02 0.0000e+00
     -0.018    26.9244     8.3482    104.354  38.733745     37.305      8.349   174.8128     3.8415     1.0111     0.0251      0.049     -0.019     -0.027         23 5.3604e+02 0.0000e+00
     -0.011    26.9324     8.3453    104.250  38.691919     37.251      8.334   169.3235     3.8051     1.0514     0.0251      0.046     -0.010     -0.014         24 5.3086e+02 0.0000e+00
     -0.001    26.9438     8.2506    103.014  38.653924     37.220      8.310   166.6357     4.0801     1.0245     0.0251      0.044      0.003      0.005         25 6.1829e+02 0.0000e+00
      0.022    26.9434     8.0856    100.948  38.632716     37.188      8.300   163.0771     4.0720     1.1051     0.0250      0.046      0.029      0.043         26 5.5433e+02 0.0000e+00
      0.071    26.9203     7.8883     98.480  38.570000     37.126      8.295   161.9414     4.0801     1.0514     0.0250      0.055      0.074      0.107         27 4.0261e+02 0.0000e+00
      0.130    26.8851     7.6925     96.016  38.524336     37.072      8.271   161.2599     4.0801     1.0782     0.0250      0.076      0.129      0.187         28 3.8747e+02 0.0000e+00
      0.194    26.8451     7.5486     94.225  38.511573     37.089      8.256   161.1842     4.0720     0.9842     0.0250      0.106      0.186      0.270         29 2.8965e+02 0.0000e+00
      0.247    26.8112     7.5016     93.669  38.496909     37.087      8.268   162.9635     4.2701     1.3333     0.0250      0.137      0.232      0.336         30 2.6680e+02 0.0000e+00
      0.269    26.7980     7.4900     93.536  38.572267     37.196      8.272   161.1842     4.2742     1.2662     0.0250      0.158      0.255      0.370         31 2.8848e+02 0.0000e+00
      0.267    26.7923     7.4991     93.652  38.566122     37.222      8.280   159.2157     4.2984     1.2393     0.0250      0.163      0.258      0.374         32 2.5238e+02 0.0000e+00
      0.255    26.7721     7.5130     93.826  38.445248     37.095      8.291   157.8906     4.2944     1.1991     0.0250      0.148      0.250      0.363         33 2.4963e+02 0.0000e+00
      0.243    26.7360     7.5404     94.182  38.426083     37.100      8.297   158.0799     4.6421     0.9574     0.0250      0.117      0.242      0.351         34 2.7689e+02 0.0000e+00
      0.242    26.7082     7.5835     94.733  38.382347     37.060      8.301   157.2092     4.6624     1.1051     0.0249      0.076      0.239      0.346         35 2.8946e+02 0.0000e+00
      0.246    26.7038     7.6039     94.972  38.381039     37.086      8.305   158.0799     4.6543     0.9842     0.0250      0.038      0.238      0.346         36 3.0608e+02 0.0000e+00
      0.241    26.7012     7.5952     94.846  38.427724     37.160      8.305   157.7014     4.6704     1.0916     0.0250      0.007      0.232      0.336         37 3.3101e+02 0.0000e+00
      0.221    26.6902     7.5694     94.541  38.383585     37.109      8.303   156.7171     4.5613     0.9842     0.0250     -0.016      0.218      0.315         38 3.3137e+02 0.0000e+00
      0.203    26.6938     7.5624     94.446  38.317329     37.057      8.311   156.5656     4.5168     0.9976     0.0249     -0.028      0.204      0.296         39 3.7216e+02 0.0000e+00
      0.201    26.7107     7.5923     94.813  38.332212     37.065      8.321   157.0578     4.5087     1.0514     0.0249     -0.031      0.200      0.290         40 3.9331e+02 0.0000e+00
      0.208    26.7187     7.6404     95.418  38.365067     37.117      8.332   157.1335     4.5127     1.0648     0.0250     -0.027      0.200      0.291         41 5.1853e+02 0.0000e+00
      0.202    26.7193     7.7049     96.241  38.335763     37.050      8.333   157.1335     4.5330     1.1185     0.0249     -0.026      0.196      0.285         42 6.2133e+02 0.0000e+00
      0.190    26.7209     7.7870     97.266  38.368673     37.099      8.334   156.9821     4.5613     1.0245     0.0250     -0.028      0.187      0.272         43 5.9103e+02 0.0000e+00
      0.182    26.7278     7.8512     98.041  38.383430     37.098      8.347   156.9064     4.5006     0.9842     0.0250     -0.029      0.181      0.263         44 6.1408e+02 0.0000e+00
      0.182    26.7350     7.8922     98.531  38.436043     37.151      8.365   157.0199     4.5249     1.0514     0.0250     -0.025      0.181      0.263         45 6.6368e+02 0.0000e+00
      0.190    26.7255     7.9155     98.828  38.540490     37.254      8.382   156.9064     4.3914     1.2662     0.0250     -0.016      0.188      0.273         46 6.5985e+02 0.0000e+00
      0.202    26.7180     7.9081     98.730  38.520401     37.222      8.387   157.2849     4.3955     1.2125     0.0250     -0.007      0.200      0.289         47 6.4285e+02 0.0000e+00
      0.219    26.7250     7.8773     98.330  38.431379     37.147      8.392   157.3606     4.4319     1.2662     0.0250      0.001      0.212      0.308         48 6.5330e+02 0.0000e+00
      0.229    26.7228     7.8527     98.020  38.443646     37.154      8.403   157.7771     4.4036     1.3871     0.0250      0.011      0.220      0.318         49 6.8576e+02 0.0000e+00
      0.224    26.7179     7.8392     97.846  38.505139     37.228      8.399   157.6256     4.4116     1.3468     0.0250      0.019      0.215      0.311         50 6.7119e+02 0.0000e+00
      0.206    26.7214     7.8279     97.723  38.532823     37.231      8.390   157.5499     4.4116     1.2662     0.0250      0.020      0.196      0.284         51 6.9184e+02 0.0000e+00
      0.168    26.7297     7.8245     97.727  38.527839     37.261      8.401   157.8149     4.4278     1.2796     0.0250      0.007      0.166      0.242         52 7.3688e+02 0.0000e+00
      0.138    26.7306     7.8143     97.617  38.333371     37.043      8.415   158.0421     4.3874     1.2125     0.0249     -0.015      0.135      0.197         53 8.0735e+02 0.0000e+00
      0.111    26.7151     7.7750     97.183  38.270585     36.982      8.425   159.3292     4.3955     1.1856     0.0249     -0.041      0.103      0.151         54 9.8740e+02 0.0000e+00
      0.066    26.7031     7.7004     96.358  38.309355     37.036      8.443   158.3828     4.2135     0.9842     0.0249     -0.072      0.067      0.097         55 9.9322e+02 0.0000e+00
      0.029    26.7056     7.5981     95.152  38.225800     36.939      8.456   158.9507     4.2216     1.0379     0.0249     -0.101      0.030      0.043         56 9.2715e+02 0.0000e+00
     -0.004    26.7030     7.5092     94.058  38.285588     37.029      8.465   159.4807     4.2297     1.1453     0.0249     -0.121     -0.004     -0.006         57 9.4868e+02 0.0000e+00
     -0.039    26.6949     7.4281     93.045  38.323937     37.053      8.464   159.7078     4.2459     1.0916     0.0249     -0.133     -0.036     -0.053         58 9.6646e+02 0.0000e+00
     -0.068    26.6930     7.3674     92.290  38.326384     37.056      8.464   159.7078     3.9547     0.9708     0.0249     -0.136     -0.063     -0.092         59 9.6927e+02 0.0000e+00
     -0.085    26.6890     7.3225     91.735  38.371529     37.116      8.464   161.0328     3.9709     1.0916     0.0250     -0.131     -0.082     -0.120         60 9.7249e+02 0.0000e+00
     -0.100    26.7005     7.2980     91.448  38.386405     37.117      8.462   160.3514     3.9507     1.0782     0.0250     -0.123     -0.093     -0.135         61 9.8742e+02 0.0000e+00
     -0.100    26.7253     7.2727     91.149  38.426521     37.174      8.465   162.7364     3.9426     0.9574     0.0250     -0.107     -0.093     -0.135         62 9.9046e+02 0.0000e+00
     -0.085    26.7370     7.2420     90.777  38.380927     37.112      8.466   161.9792     3.4937     0.9842     0.0250     -0.080     -0.085     -0.124         63 1.0128e+03 0.0000e+00
     -0.079    26.7688     7.1997     90.266  38.383815     37.093      8.469   161.2599     3.4897     0.9708     0.0250     -0.054     -0.079     -0.115         64 9.7166e+02 0.0000e+00
     -0.078    26.8300     7.1309     89.423  38.422917     37.140      8.473   160.9949     3.5059     1.1185     0.0250     -0.030     -0.076     -0.110         65 9.7692e+02 0.0000e+00
     -0.076    26.8736     7.0553     88.492  38.332257     37.009      8.470   160.9949     3.5140     1.0514     0.0249     -0.010     -0.073     -0.106         66 9.2995e+02 0.0000e+00
     -0.070    26.8855     6.9592     87.302  38.377976     37.018      8.467   160.9192     3.4210     1.0379     0.0249      0.006     -0.069     -0.100         67 9.5970e+02 0.0000e+00
     -0.066    26.8875     6.8686     86.176  38.425317     37.041      8.462   160.8057     3.4331     1.0379     0.0250      0.015     -0.065     -0.094         68 1.0394e+03 0.0000e+00
     -0.064    26.8901     6.7835     85.118  38.391968     36.979      8.459   161.3357     3.4371     0.9976     0.0249      0.018     -0.065     -0.093         69 9.4142e+02 0.0000e+00
     -0.068    26.8950     6.6957     84.023  38.419470     37.032      8.458   160.8435     3.4371     0.9842     0.0250      0.015     -0.066     -0.096         70 1.0876e+03 0.0000e+00
     -0.069    26.9069     6.6203     83.086  38.391088     36.976      8.461   160.9949     3.6959     1.1453     0.0249      0.009     -0.067     -0.097         71 1.1655e+03 0.0000e+00
     -0.068    26.9178     6.5495     82.209  38.367962     36.973      8.461   160.9192     3.6959     0.9976     0.0249      0.006     -0.068     -0.099         72 1.1314e+03 0.0000e+00
     -0.073    26.9262     6.4865     81.424  38.388923     36.964      8.461   161.2221     3.6838     0.9976     0.0249      0.003     -0.072     -0.105         73 1.1629e+03 0.0000e+00
     -0.081    26.9377     6.4332     80.762  38.424321     37.010      8.466   161.5249     3.6797     1.0648     0.0250     -0.002     -0.077     -0.112         74 1.1622e+03 0.0000e+00
     -0.082    26.9501     6.3841     80.161  38.383228     36.950      8.468   161.2599     3.7081     1.0111     0.0249     -0.007     -0.079     -0.115         75 1.1940e+03 0.0000e+00
     -0.080    26.9612     6.3345     79.555  38.380734     36.942      8.470   162.3578     3.3360     1.0916     0.0249     -0.009     -0.079     -0.115         76 1.1922e+03 0.0000e+00
     -0.081    26.9701     6.2951     79.070  38.427419     36.987      8.478   162.5092     3.3199     1.0111     0.0250     -0.009     -0.080     -0.117         77 1.2009e+03 0.0000e+00
     -0.085    26.9776     6.2459     78.458  38.443770     36.979      8.477   162.8878     3.3118     0.9842     0.0250     -0.009     -0.083     -0.121         78 1.2054e+03 0.0000e+00
     -0.089    26.9835     6.2100     78.013  38.479026     37.026      8.478   162.6985     3.2996     1.0111     0.0250     -0.010     -0.087     -0.125         79 1.2029e+03 0.0000e+00
     -0.091    26.9880     6.1669     77.482  38.442863     36.967      8.474   163.0014     3.2309     1.0379     0.0250     -0.010     -0.088     -0.127         80 1.1925e+03 0.0000e+00
     -0.090    26.9950     6.1269     76.990  38.429448     36.963      8.476   162.8878     3.2390     1.0245     0.0250     -0.008     -0.087     -0.127         81 1.1751e+03 0.0000e+00
     -0.087    27.0023     6.0930     76.572  38.436394     36.960      8.474   163.0014     3.2471     0.9574     0.0250     -0.005     -0.085     -0.124         82 1.1767e+03 0.0000e+00
     -0.085    27.0064     6.0566     76.118  38.434215     36.955      8.474   163.0392     3.2309     1.0111     0.0250     -0.004     -0.083     -0.121         83 1.0928e+03 0.0000e+00
     -0.084    27.0113     6.0349     75.847  38.432155     36.950      8.472   163.3042     3.4937     1.0245     0.0250     -0.002     -0.083     -0.120         84 8.8171e+02 0.0000e+00
     -0.085    27.0222     6.0136     75.593  38.379631     36.893      8.468   163.3799     3.5261     1.0379     0.0249     -0.000     -0.084     -0.121         85 7.4939e+02 0.0000e+00
     -0.086    27.0336     6.0016     75.461  38.380932     36.890      8.462   163.4935     3.4897     1.1319     0.0249      0.001     -0.085     -0.123         86 7.4238e+02 0.0000e+00
     -0.088    27.0408     5.9891     75.321  38.430531     36.936      8.458   164.0614     3.4897     1.0379     0.0250      0.002     -0.087     -0.126         87 7.4550e+02 0.0000e+00
     -0.091    27.0451     5.9755     75.163  38.436546     36.927      8.461   163.9478     4.0235     0.9439     0.0250      0.000     -0.089     -0.129         88 7.6771e+02 0.0000e+00
     -0.092    27.0495     5.9629     75.018  38.432765     36.922      8.467   164.3642     4.0275     1.0648     0.0250     -0.002     -0.090     -0.130         89 8.6894e+02 0.0000e+00
     -0.092    27.0567     5.9479     74.838  38.435234     36.919      8.469   164.5535     4.0194     1.1051     0.0250     -0.004     -0.090     -0.130         90 1.0235e+03 0.0000e+00
     -0.092    27.0641     5.9296     74.610  38.433471     36.916      8.469   164.6292     4.0073     0.9842     0.0250     -0.005     -0.090     -0.130         91 1.1490e+03 0.0000e+00
     -0.092    27.0700     5.9022     74.275  38.434956     36.911      8.468   164.3642     3.8374     1.0111     0.0250     -0.004     -0.089     -0.130         92 1.1788e+03 0.0000e+00
     -0.090    27.0728     5.8778     73.977  38.433384     36.906      8.463   164.5157     3.8213     1.0916     0.0250     -0.003     -0.089     -0.129         93 1.1850e+03 0.0000e+00
     -0.090    27.0746     5.8471     73.595  38.435425     36.902      8.463   164.2885     3.8455     1.0111     0.0250     -0.001     -0.089     -0.129         94 1.1885e+03 0.0000e+00
     -0.094    27.0836     5.8311     73.396  38.491735     36.953      8.468   164.5157     3.8294     1.0245     0.0250     -0.001     -0.090     -0.132         95 1.1736e+03 0.0000e+00
     -0.093    27.0984     5.8115     73.150  38.511613     36.979      8.464   164.8942     3.8374     1.0379     0.0250     -0.001     -0.090     -0.132         96 1.2007e+03 0.0000e+00
     -0.091    27.1105     5.8059     73.089  38.440346     36.892      8.465   164.6671     3.6838     0.9305     0.0250     -0.000     -0.089     -0.129         97 1.2289e+03 0.0000e+00
     -0.089    27.1203     5.7892     72.891  38.432111     36.882      8.463   164.8564     3.6878     1.0648     0.0250      0.001     -0.088     -0.128         98 1.2352e+03 0.0000e+00
     -0.091    27.1306     5.7816     72.801  38.432869     36.873      8.458   165.8407     3.6919     1.0245     0.0250      0.001     -0.089     -0.129         99 1.2421e+03 0.0000e+00
     -0.091    27.1367     5.7736     72.706  38.439397     36.866      8.462   165.7271     3.7283     1.0379     0.0250      0.001     -0.089     -0.129        100 1.2496e+03 0.0000e+00
     -0.090    27.1388     5.7673     72.637  38.483307     36.912      8.466   165.7271     3.9062     1.1453     0.0250      0.001     -0.088     -0.128        101 1.2560e+03 0.0000e+00
     -0.089    27.1453     5.7631     72.595  38.437544     36.854      8.471   166.0300     3.8658     1.0514     0.0250      0.001     -0.087     -0.126        102 1.2551e+03 0.0000e+00
     -0.088    27.1531     5.7499     72.439  38.437021     36.853      8.474   166.1057     3.8577     1.0111     0.0250      0.002     -0.087     -0.126        103 1.2533e+03 0.0000e+00
     -0.089    27.1568     5.7401     72.324  38.424630     36.848      8.475   166.0678     3.8941     1.0514     0.0250      0.002     -0.087     -0.126        104 1.2595e+03 0.0000e+00
     -0.089    27.1577     5.7287     72.191  38.393638     36.789      8.473   166.4085     4.0113     0.9708     0.0249      0.001     -0.087     -0.127        105 1.2640e+03 0.0000e+00
     -0.090    27.1593     5.7144     72.020  38.416265     36.840      8.473   166.4842     4.0356     1.0245     0.0250      0.000     -0.088     -0.129        106 1.2625e+03 0.0000e+00
     -0.093    27.1661     5.7001     71.848  38.396469     36.786      8.474   166.3328     3.9951     1.0245     0.0249     -0.000     -0.089     -0.130        107 1.2611e+03 0.0000e+00
     -0.091    27.1744     5.6892     71.715  38.418273     36.839      8.470   166.2192     3.9992     1.0245     0.0250     -0.001     -0.089     -0.129        108 1.2689e+03 0.0000e+00
     -0.089    27.1794     5.6814     71.624  38.448452     36.834      8.466   167.0142     3.7727     1.1319     0.0250     -0.001     -0.087     -0.127        109 1.2794e+03 0.0000e+00
     -0.089    27.1840     5.6742     71.540  38.418231     36.828      8.468   167.0521     3.7849     1.0245     0.0250     -0.001     -0.087     -0.127        110 1.2821e+03 0.0000e+00
     -0.090    27.1914     5.6662     71.445  38.396556     36.771      8.471   167.8471     3.7364     1.0245     0.0249     -0.001     -0.088     -0.127        111 1.2841e+03 0.0000e+00
     -0.090    27.2001     5.6572     71.337  38.416100     36.821      8.473   168.6800     3.7404     1.0379     0.0250     -0.000     -0.088     -0.127        112 1.2925e+03 0.0000e+00
     -0.089    27.2079     5.6590     71.368  38.393905     36.762      8.471   168.3392     3.8819     1.0379     0.0249      0.001     -0.088     -0.127        113 1.3037e+03 0.0000e+00
     -0.090    27.2151     5.6451     71.202  38.424174     36.810      8.470   168.3014     3.8900     1.0379     0.0250      0.001     -0.088     -0.127        114 1.3066e+03 0.0000e+00
     -0.090    27.2227     5.6503     71.276  38.437750     36.804      8.469   168.2635     3.8698     0.9708     0.0250      0.001     -0.088     -0.127        115 1.3056e+03 0.0000e+00
     -0.089    27.2303     5.6403     71.158  38.436329     36.799      8.472   168.4150     3.8698     0.9842     0.0250      0.001     -0.087     -0.126        116 1.3164e+03 0.0000e+00
     -0.087    27.2365     5.6355     71.106  38.425939     36.794      8.469   168.3014     3.8981     0.9842     0.0250      0.001     -0.087     -0.125        117 1.3319e+03 0.0000e+00
     -0.088    27.2402     5.6334     71.087  38.391353     36.735      8.466   168.9828     4.0720     1.0379     0.0249      0.001     -0.087     -0.126        118 1.3345e+03 0.0000e+00
     -0.089    27.2453     5.6250     70.990  38.420043     36.784      8.469   169.0964     4.0922     1.0379     0.0250      0.001     -0.087     -0.126        119 1.3326e+03 0.0000e+00
     -0.089    27.2516     5.6155     70.876  38.390232     36.728      8.469   168.9828     4.0801     0.9976     0.0249      0.000     -0.087     -0.126        120 1.3400e+03 0.0000e+00
     -0.087    27.2557     5.6043     70.739  38.428450     36.778      8.466   169.3235     4.0720     0.9976     0.0250      0.001     -0.087     -0.126        121 1.3455e+03 0.0000e+00
     -0.088    27.2599     5.5981     70.666  38.431802     36.773      8.464   169.3993     4.1165     0.9708     0.0250      0.001     -0.087     -0.126        122 1.3390e+03 0.0000e+00
     -0.090    27.2660     5.5882     70.547  38.386058     36.717      8.463   169.4371     4.1488     1.0916     0.0249     -0.000     -0.089     -0.128        123 1.3396e+03 0.0000e+00
     -0.090    27.2734     5.5839     70.499  38.366728     36.714      8.465   169.9293     4.1448     1.0514     0.0249     -0.001     -0.089     -0.129        124 1.3480e+03 0.0000e+00
     -0.090    27.2805     5.5841     70.509  38.337208     36.656      8.465   169.7021     4.1448     1.1185     0.0249     -0.001     -0.088     -0.128        125 1.3494e+03 0.0000e+00
     -0.089    27.2869     5.5772     70.427  38.363469     36.705      8.464   169.7778     4.1326     1.0379     0.0249     -0.001     -0.087     -0.127        126 1.3521e+03 0.0000e+00
     -0.088    27.2931     5.5712     70.357  38.393367     36.700      8.467   170.2321     4.1650     1.0111     0.0249     -0.000     -0.087     -0.126        127 1.3611e+03 0.0000e+00
     -0.089    27.2997     5.5727     70.381  38.418644     36.749      8.463   170.5350     4.1367     1.0379     0.0249     -0.000     -0.087     -0.126        128 1.3693e+03 0.0000e+00
     -0.089    27.3060     5.5744     70.409  38.391332     36.691      8.464   171.0271     4.1690     1.0245     0.0249     -0.000     -0.087     -0.126        129 1.3722e+03 0.0000e+00
     -0.089    27.3109     5.5683     70.337  38.368029     36.686      8.461   170.8000     4.1569     1.0514     0.0249      0.000     -0.087     -0.126        130 1.3748e+03 0.0000e+00
     -0.088    27.3151     5.5589     70.220  38.388317     36.682      8.457   170.8000     4.1448     1.0379     0.0249      0.001     -0.086     -0.125        131 1.3770e+03 0.0000e+00
     -0.088    27.3188     5.5491     70.096  38.425404     36.732      8.453   171.1028     4.1771     1.0648     0.0249      0.001     -0.086     -0.125        132 1.3764e+03 0.0000e+00
     -0.088    27.3232     5.5505     70.106  38.381195     36.675      8.453   170.8000     4.1205     1.0245     0.0249      0.001     -0.087     -0.126        133 1.3739e+03 0.0000e+00
     -0.089    27.3284     5.5624     70.263  38.384009     36.673      8.455   170.8757     4.1973     1.0379     0.0249      0.000     -0.087     -0.126        134 1.3706e+03 0.0000e+00
     -0.088    27.3339     5.5680     70.344  38.421901     36.723      8.452   171.8221     4.2054     1.0111     0.0249      0.000     -0.086     -0.125        135 1.3680e+03 0.0000e+00
     -0.087    27.3388     5.5672     70.340  38.393359     36.666      8.447   171.8221     4.1852     0.9171     0.0249      0.001     -0.085     -0.124        136 1.3718e+03 0.0000e+00
     -0.086    27.3428     5.5643     70.308  38.419525     36.716      8.443   171.4435     4.1973     1.0379     0.0249      0.001     -0.085     -0.123        137 1.3792e+03 0.0000e+00
     -0.086    27.3469     5.5544     70.186  38.389335     36.659      8.445   171.6707     4.2135     0.9305     0.0249      0.001     -0.085     -0.123        138 1.3823e+03 0.0000e+00
     -0.087    27.3525     5.5430     70.044  38.371605     36.656      8.445   171.4814     4.2095     1.0782     0.0249      0.001     -0.085     -0.123        139 1.3880e+03 0.0000e+00
     -0.087    27.3566     5.5275     69.852  38.382265     36.653      8.442   171.7464     4.1892     0.9574     0.0249      0.001     -0.085     -0.123        140 1.3939e+03 0.0000e+00
     -0.086    27.3587     5.5140     69.684  38.376067     36.649      8.444   171.6707     4.2135     1.0245     0.0249      0.001     -0.084     -0.121        141 1.3951e+03 0.0000e+00
     -0.083    27.3564     5.5081     69.613  38.379316     36.646      8.445   171.7464     4.2216     1.0648     0.0249      0.002     -0.083     -0.120        142 1.3969e+03 0.0000e+00
     -0.083    27.3522     5.5064     69.599  38.378220     36.645      8.448   171.9357     4.2095     1.0648     0.0249      0.002     -0.083     -0.120        143 1.3952e+03 0.0000e+00
     -0.087    27.3574     5.5081     69.627  38.377431     36.646      8.452   171.9357     4.2054     0.9574     0.0249      0.001     -0.085     -0.123        144 1.3980e+03 0.0000e+00
     -0.089    27.3655     5.5054     69.598  38.380298     36.650      8.456   172.7307     4.2095     1.0514     0.0249     -0.000     -0.086     -0.125        145 1.4241e+03 0.0000e+00
     -0.087    27.3695     5.5104     69.668  38.374652     36.646      8.458   172.8443     4.2014     1.0379     0.0249     -0.000     -0.086     -0.125        146 1.4425e+03 0.0000e+00
     -0.088    27.3733     5.5076     69.638  38.325133     36.587      8.461   172.6550     4.3510     1.1991     0.0249     -0.001     -0.086     -0.125        147 1.4424e+03 0.0000e+00
     -0.088    27.3760     5.4985     69.522  38.323273     36.584      8.464   172.6171     4.3429     1.3199     0.0249     -0.002     -0.086     -0.125        148 1.4481e+03 0.0000e+00
     -0.088    27.3780     5.4841     69.336  38.317640     36.581      8.463   173.1093     4.3227     1.1588     0.0249     -0.002     -0.086     -0.125        149 1.4478e+03 0.0000e+00
     -0.087    27.3814     5.4657     69.103  38.361803     36.606      8.465   172.9200     4.3753     1.1856     0.0249     -0.002     -0.086     -0.125        150 1.4416e+03 0.0000e+00
     -0.088    27.3835     5.4454     68.851  38.357295     36.631      8.463   172.9578     4.3429     1.0245     0.0249     -0.001     -0.087     -0.126        151 1.4350e+03 0.0000e+00
     -0.089    27.3857     5.4284     68.643  38.293588     36.522      8.457   172.5793     4.3510     1.0245     0.0249     -0.000     -0.088     -0.127        152 1.4288e+03 0.0000e+00
     -0.090    27.3911     5.4082     68.392  38.352100     36.628      8.450   172.8064     4.3267     1.0648     0.0249     -0.001     -0.088     -0.128        153 1.4290e+03 0.0000e+00
     -0.089    27.3971     5.4037     68.341  38.343798     36.573      8.449   172.5414     4.3348     0.9976     0.0249     -0.001     -0.087     -0.127        154 1.4406e+03 0.0000e+00
     -0.087    27.4017     5.3996     68.296  38.333580     36.595      8.448   173.5636     3.8819     0.9171     0.0249     -0.000     -0.086     -0.125        155 1.4539e+03 0.0000e+00
     -0.088    27.4068     5.3967     68.265  38.335154     36.565      8.454   173.5257     3.8738     1.0111     0.0249     -0.000     -0.086     -0.125        156 1.4665e+03 0.0000e+00
     -0.088    27.4110     5.3900     68.187  38.312174     36.561      8.457   173.6393     3.8738     0.9976     0.0249     -0.000     -0.086     -0.125        157 1.4826e+03 0.0000e+00
     -0.088    27.4102     5.3839     68.113  38.273191     36.504      8.460   174.1314     3.9143     1.1185     0.0249      0.000     -0.086     -0.125        158 1.4920e+03 0.0000e+00
     -0.087    27.4070     5.3765     68.023  38.265021     36.502      8.464   173.9800     3.9102     1.0916     0.0249      0.001     -0.086     -0.124        159 1.4940e+03 0.0000e+00
     -0.087    27.4070     5.3644     67.873  38.292678     36.529      8.463   173.5636     4.0922     1.0245     0.0249      0.001     -0.086     -0.124        160 1.4933e+03 0.0000e+00
     -0.087    27.4110     5.3480     67.667  38.268433     36.504      8.463   173.8664     4.0720     1.0111     0.0249      0.001     -0.086     -0.124        161 1.4919e+03 0.0000e+00
     -0.088    27.4159     5.3359     67.518  38.265533     36.504      8.465   173.9421     4.0558     1.0245     0.0249      0.000     -0.086     -0.125        162 1.4896e+03 0.0000e+00
     -0.088    27.4203     5.3234     67.363  38.266625     36.502      8.466   173.9800     4.0962     1.0111     0.0249     -0.000     -0.086     -0.125        163 1.4888e+03 0.0000e+00
     -0.088    27.4253     5.3134     67.241  38.267072     36.498      8.467   173.7150     4.0841     1.0111     0.0249      0.000     -0.086     -0.125        164 1.4895e+03 0.0000e+00
     -0.088    27.4303     5.3038     67.123  38.324297     36.548      8.469   174.2828     4.0679     1.0111     0.0249      0.000     -0.086     -0.125        165 1.4947e+03 0.0000e+00
     -0.088    27.4350     5.2979     67.053  38.343714     36.572      8.467   174.3586     4.0882     0.9708     0.0249     -0.000     -0.086     -0.125        166 1.5048e+03 0.0000e+00
     -0.088    27.4401     5.2931     66.996  38.272568     36.488      8.469   174.7750     4.0720     1.0111     0.0249     -0.000     -0.087     -0.126        167 1.5123e+03 0.0000e+00
     -0.089    27.4437     5.2870     66.923  38.264528     36.485      8.468   175.1914     3.7768     1.0379     0.0249     -0.001     -0.087     -0.126        168 1.5220e+03 0.0000e+00
     -0.088    27.4461     5.2757     66.782  38.264731     36.481      8.465   175.1536     3.7566     1.0379     0.0249     -0.001     -0.087     -0.126        169 1.5292e+03 0.0000e+00
     -0.088    27.4483     5.2657     66.648  38.272311     36.479      8.466   175.6078     3.7606     1.0648     0.0249     -0.000     -0.087     -0.126        170 1.5328e+03 0.0000e+00
     -0.089    27.4506     5.3082     66.982  38.284756     36.504      8.467   175.5321     3.7485     0.9976     0.0249     -0.000     -0.087     -0.126        171 1.5379e+03 0.0000e+00
     -0.088    27.4533     5.7041     71.564  38.278904     36.476      8.466   175.4943     3.6919     1.1453     0.0249     -0.000     -0.087     -0.126        172 1.5409e+03 0.0000e+00
     -0.089    27.4566     6.5174     81.439  38.249931     36.474      8.466   175.6457     3.6959     1.0379     0.0249     -0.000     -0.087     -0.126        173 1.5380e+03 0.0000e+00
     -0.088    27.4597     7.4791     93.236  38.231828     36.419      8.467   175.1536     3.6959     0.9842     0.0249     -0.000     -0.087     -0.126        174 1.5338e+03 0.0000e+00
     -0.088    27.4630     8.4120    104.723  38.242109     36.470      8.469   175.7214     3.6838     0.9171     0.0249      0.000     -0.087     -0.126        175 1.5343e+03 0.0000e+00
     -0.089    27.4661     9.2611    115.233  38.237135     36.414      8.473   175.4564     3.5867     1.0648     0.0249      0.000     -0.087     -0.126        176 1.5394e+03 0.0000e+00
     -0.089    27.4709     9.8763    122.876  38.267677     36.492      8.475   174.9264     3.5827     1.0648     0.0249     -0.000     -0.087     -0.126        177 1.5520e+03 0.0000e+00
     -0.089    27.4725    10.2733    127.831  38.233758     36.410      8.478   175.4943     3.5342     0.9574     0.0249     -0.000     -0.087     -0.126        178 1.5576e+03 0.0000e+00
     -0.089    27.4764    10.4638    130.209  38.190361     36.407      8.478   175.5700     3.5948     1.0379     0.0249     -0.000     -0.087     -0.126        179 1.5647e+03 0.0000e+00
     -0.089    27.4660    10.4408    129.897  38.232698     36.405      8.481   175.4564     3.5625     1.0111     0.0249     -0.000     -0.087     -0.126        180 1.5785e+03 0.0000e+00
     -0.088    27.2934    10.3123    128.220  38.240390     36.457      8.486   175.4564     3.4937     1.1319     0.0249     -0.000     -0.087     -0.126        181 1.5785e+03 0.0000e+00
     -0.088    26.9814    10.1363    125.977  38.151128     36.328      8.485   175.5700     3.5220     0.9976     0.0248     -0.000     -0.087     -0.126        182 1.5763e+03 0.0000e+00
     -0.089    26.7514     9.9608    123.771  38.136179     36.473      8.488   175.9864     3.5261     1.1319     0.0248      0.000     -0.087     -0.126        183 1.5827e+03 0.0000e+00
     -0.088    26.6221     9.8265    122.084  38.170097     36.699      8.488   175.9107     3.4816     1.0111     0.0249      0.000     -0.087     -0.126        184 1.5819e+03 0.0000e+00
     -0.088    26.5459     9.7141    120.674  38.138714     36.859      8.491   176.2136     3.6838     1.0379     0.0249      0.000     -0.087     -0.126        185 1.5787e+03 0.0000e+00
     -0.088    26.5166     9.6323    119.659  38.116030     36.898      8.491   176.0621     3.7323     0.9842     0.0248      0.000     -0.087     -0.126        186 1.5811e+03 0.0000e+00
     -0.089    26.5112     9.5535    118.711  38.198403     37.060      8.492   176.1000     3.6919     1.0379     0.0249      0.000     -0.087     -0.126        187 1.5842e+03 0.0000e+00
     -0.088    26.5173     9.4965    118.028  38.243874     37.109      8.495   176.2136     3.7161     1.1051     0.0249      0.000     -0.087     -0.126        188 1.5886e+03 0.0000e+00
     -0.088    26.5211     9.4476    117.433  38.207766     37.085      8.496   176.4028     3.6676     1.0648     0.0249 -1.684e-15     -0.087     -0.126        189 1.5978e+03 0.0000e+00
     -0.089    26.5089     9.4146    117.026  38.213680     37.080      8.497   176.1378     3.7000     0.9708     0.0249      0.000     -0.087     -0.126        190 1.6057e+03 0.0000e+00
     -0.088    26.4770     9.3982    116.810  38.147529     37.024      8.498   176.4786     3.7121     1.0379     0.0249      0.000     -0.087     -0.126        191 1.6042e+03 0.0000e+00
     -0.088    26.4521     9.3973    116.776  38.112123     36.978      8.496   176.5921     3.7081     1.0111     0.0249     -0.000     -0.087     -0.126        192 1.6070e+03 0.0000e+00
     -0.088    26.4410     9.3881    116.646  38.168765     37.083      8.496   176.1378     3.6878     1.0111     0.0249      0.000     -0.087     -0.125        193 1.6134e+03 0.0000e+00
     -0.087    26.4327     9.3837    116.577  38.106714     37.019      8.497   176.6300     3.6919     1.0111     0.0249      0.000     -0.086     -0.124        194 1.6153e+03 0.0000e+00
     -0.087    26.4262     9.3887    116.630  38.100374     37.027      8.497   176.9707     3.6838     1.0111     0.0249      0.001     -0.086     -0.124        195 1.6121e+03 0.0000e+00
     -0.088    26.4277     9.3945    116.709  38.147001     37.087      8.495   176.8571     3.7081     1.0648     0.0249      0.000     -0.086     -0.125        196 1.6109e+03 0.0000e+00
     -0.088    26.4410     9.4091    116.907  38.108014     37.038      8.495   177.1221     3.6312     1.2125     0.0249      0.000     -0.087     -0.126        197 1.6170e+03 0.0000e+00
     -0.088    26.4534     9.4333    117.203  38.119233     37.064      8.491   177.4250     3.6514     1.3199     0.0249      0.000     -0.087     -0.126        198 1.6217e+03 0.0000e+00
     -0.088    26.4593     9.4539    117.445  38.162699     37.081      8.492   176.7814     3.6555     1.2393     0.0249      0.000     -0.086     -0.125        199 1.6272e+03 0.0000e+00
     -0.088    26.4606     9.4717    117.670  38.202223     37.127      8.489   176.9707     3.6231     1.2393     0.0249     -0.000     -0.086     -0.125        200 1.6315e+03 0.0000e+00
     -0.088    26.4546     9.4934    117.953  38.159024     37.068      8.486   177.4250     3.7121     1.2393     0.0249     -0.000     -0.086     -0.125        201 1.6327e+03 0.0000e+00
     -0.088    26.4443     9.4969    118.000  38.097811     37.013      8.484   177.1600     3.6797     1.2259     0.0249     -0.000     -0.087     -0.125        202 1.6366e+03 0.0000e+00
     -0.088    26.4367     9.4797    117.784  38.100432     37.017      8.486   177.6521     3.7000     1.2259     0.0249     -0.000     -0.087     -0.125        203 1.6359e+03 0.0000e+00
     -0.087    26.4303     9.4534    117.473  38.126104     37.052      8.490   177.7657     3.7161     1.2393     0.0249      0.000     -0.086     -0.124        204 1.6333e+03 0.0000e+00
     -0.087    26.4254     9.4303    117.212  38.154852     37.084      8.492   177.6900     3.6878     1.2528     0.0249      0.001     -0.085     -0.124        205 1.6304e+03 0.0000e+00
     -0.086    26.4291     9.4008    116.874  38.153643     37.089      8.495   178.0686     3.7081     1.0514     0.0249      0.001     -0.085     -0.124        206 1.6227e+03 0.0000e+00
     -0.087    26.4364     9.3756    116.592  38.157273     37.093      8.493   177.7657     3.7161     1.0379     0.0249      0.001     -0.086     -0.125        207 1.6343e+03 0.0000e+00
     -0.088    26.4344     9.3489    116.266  38.150336     37.090      8.494   178.2200     3.6838     1.1051     0.0249      0.000     -0.086     -0.125        208 1.6547e+03 0.0000e+00
     -0.088    26.4282     9.3411    116.166  38.132613     37.057      8.493   178.4093     3.7323     1.0111     0.0249      0.000     -0.086     -0.125        209 1.6589e+03 0.0000e+00
     -0.088    26.4297     9.3467    116.241  38.149667     37.086      8.488   178.5607     3.7606     0.9976     0.0249      0.000     -0.086     -0.125        210 1.6654e+03 0.0000e+00
     -0.088    26.4358     9.3492    116.295  38.158774     37.091      8.481   179.1286     3.7849     1.1319     0.0249     -0.000     -0.086     -0.125        211 1.6774e+03 0.0000e+00
     -0.087    26.4374     9.3528    116.349  38.210264     37.144      8.470   179.3557     3.7727     1.0245     0.0249     -0.000     -0.086     -0.124        212 1.6754e+03 0.0000e+00
     -0.087    26.4368     9.3578    116.421  38.204233     37.139      8.465   178.9771     3.7283     0.9976     0.0249     -0.000     -0.086     -0.124        213 1.6639e+03 0.0000e+00
     -0.088    26.4445     9.3715    116.614  38.166277     37.084      8.462   179.3936     3.7930     0.9842     0.0249     -0.000     -0.086     -0.125        214 1.6725e+03 0.0000e+00
     -0.089    26.4567     9.3729    116.652  38.168515     37.112      8.461   179.3557     3.7768     1.0916     0.0249     -0.000     -0.086     -0.125        215 1.6896e+03 0.0000e+00
     -0.088    26.4707     9.3790    116.733  38.171786     37.079      8.459   179.4314     3.7768     1.0514     0.0249     -0.000     -0.086     -0.125        216 1.6903e+03 0.0000e+00
     -0.088    26.4843     9.3928    116.910  38.191865     37.124      8.458   179.7343     3.7566     1.0648     0.0249     -0.000     -0.086     -0.125        217 1.6923e+03 0.0000e+00
     -0.088    26.4880     9.4024    117.036  38.173183     37.060      8.457   179.4314     3.7687     1.0245     0.0249     -0.000     -0.086     -0.125        218 1.7024e+03 0.0000e+00
     -0.087    26.4859     9.4103    117.152  38.195028     37.104      8.459   179.6207     3.7768     1.0648     0.0249     -0.000     -0.086     -0.124        219 1.7110e+03 0.0000e+00
     -0.087    26.4894     9.4231    117.341  38.194335     37.075      8.469   179.7721     3.7647     1.0111     0.0249     -0.000     -0.086     -0.124        220 1.7201e+03 0.0000e+00
     -0.088    26.4993     9.4322    117.476  38.203706     37.103      8.480   179.9614     3.7808     1.0514     0.0249      0.000     -0.086     -0.124        221 1.7267e+03 0.0000e+00
     -0.087    26.5045     9.4373    117.547  38.213026     37.101      8.488   179.7721     3.8172     1.2393     0.0249      0.000     -0.086     -0.124        222 1.7302e+03 0.0000e+00
     -0.087    26.5088     9.4335    117.502  38.212394     37.093      8.498   180.1129     3.8253     1.1991     0.0249      0.001     -0.085     -0.124        223 1.7401e+03 0.0000e+00
     -0.087    26.5198     9.4153    117.274  38.204489     37.090      8.503   179.8100     3.8334     1.3333     0.0249      0.000     -0.085     -0.124        224 1.7427e+03 0.0000e+00
     -0.087    26.5288     9.3945    117.025  38.222860     37.087      8.504   180.1129     3.8294     1.2931     0.0249      0.000     -0.086     -0.124        225 1.7405e+03 0.0000e+00
     -0.088    26.5323     9.3786    116.848  38.278513     37.160      8.508   180.4157     3.8091     1.1856     0.0249      0.000     -0.086     -0.124        226 1.7502e+03 0.0000e+00
     -0.087    26.5343     9.3541    116.551  38.224210     37.072      8.511   180.3779     3.8819     1.0379     0.0249      0.000     -0.085     -0.123        227 1.7569e+03 0.0000e+00
     -0.086    26.5373     9.3330    116.319  38.201451     37.070      8.511   180.6807     3.8900     0.9708     0.0249      0.000     -0.085     -0.123        228 1.7596e+03 0.0000e+00
     -0.087    26.5460     9.3297    116.314  38.217849     37.068      8.511   180.7564     3.8860     1.1185     0.0249      0.000     -0.085     -0.124        229 1.7626e+03 0.0000e+00
     -0.087    26.5599     9.3469    116.548  38.263125     37.121      8.511   181.2864     3.8900     1.0916     0.0249      0.000     -0.085     -0.124        230 1.7632e+03 0.0000e+00
     -0.087    26.5698     9.3728    116.869  38.293412     37.142      8.509   181.4379     4.0841     1.0916     0.0249      0.000     -0.085     -0.124        231 1.7678e+03 0.0000e+00
     -0.087    26.5735     9.3929    117.139  38.269137     37.104      8.508   181.1350     4.0922     1.0648     0.0249      0.000     -0.085     -0.124        232 1.7667e+03 0.0000e+00
     -0.087    26.5746     9.4033    117.302  38.263667     37.097      8.508   181.1350     4.0720     0.9976     0.0249      0.000     -0.085     -0.124        233 1.7733e+03 0.0000e+00
     -0.087    26.5738     9.3945    117.232  38.270552     37.094      8.507   181.1350     4.0679     1.0648     0.0249      0.000     -0.085     -0.123        234 1.7962e+03 0.0000e+00
     -0.086    26.5790     9.3931    117.246  38.260566     37.094      8.504   181.5893     4.1003     1.0379     0.0249     -0.000     -0.085     -0.123        235 1.7938e+03 0.0000e+00
     -0.087    26.5878     9.3894    117.228  38.276094     37.094      8.498   181.2486     4.1084     0.9574     0.0249     -0.000     -0.086     -0.124        236 1.7820e+03 0.0000e+00
     -0.088    26.5937     9.3897    117.246  38.280888     37.118      8.496   181.1729     4.1003     0.9976     0.0249     -0.000     -0.086     -0.124        237 1.7917e+03 0.0000e+00
     -0.087    26.6069     9.3815    117.172  38.284258     37.084      8.495   181.5893     4.0518     1.0514     0.0249     -0.000     -0.085     -0.124        238 1.7945e+03 0.0000e+00
     -0.086    26.6248     9.3672    117.020  38.301557     37.135      8.494   181.7029     4.0194     1.0379     0.0249      0.000     -0.085     -0.124        239 1.7888e+03 0.0000e+00
     -0.087    26.6332     9.3659    117.024  38.289017     37.070      8.497   181.8543     4.0275     1.0916     0.0249      0.000     -0.085     -0.124        240 1.7896e+03 0.0000e+00
     -0.087    26.6337     9.3566    116.929  38.299859     37.112      8.498   182.3086     3.9992     1.0245     0.0249      0.000     -0.085     -0.124        241 1.7957e+03 0.0000e+00
     -0.087    26.6415     9.3375    116.710  38.317720     37.078      8.494   182.0814     4.0356     1.0379     0.0249     -0.000     -0.085     -0.124        242 1.8029e+03 0.0000e+00
     -0.087    26.6586     9.3219    116.530  38.355769     37.160      8.499   182.3086     4.0073     1.2125     0.0250     -0.000     -0.085     -0.124        243 1.8076e+03 0.0000e+00
     -0.087    26.6762     9.3186    116.502  38.341490     37.099      8.497   182.1571     4.0032     1.3333     0.0249      0.000     -0.085     -0.124        244 1.8127e+03 0.0000e+00
     -0.087    26.6922     9.3106    116.408  38.305824     37.088      8.496   182.7250     4.0154     1.2528     0.0249      0.000     -0.085     -0.124        245 1.8111e+03 0.0000e+00
     -0.087    26.7042     9.3041    116.332  38.340823     37.074      8.493   182.4600     4.0154     1.2393     0.0249     -0.000     -0.085     -0.124        246 1.8120e+03 0.0000e+00
     -0.086    26.7122     9.2968    116.246  38.357248     37.118      8.491   182.4221     4.0073     1.2393     0.0250      0.000     -0.085     -0.124        247 1.8147e+03 0.0000e+00
     -0.087    26.7249     9.2887    116.153  38.344700     37.054      8.492   182.7629     3.8658     1.0648     0.0249      0.000     -0.085     -0.124        248 1.8138e+03 0.0000e+00
     -0.087    26.7381     9.2780    116.023  38.356433     37.104      8.492   183.0279     3.8981     1.0379     0.0250      0.000     -0.085     -0.124        249 1.8174e+03 0.0000e+00
     -0.087    26.7475     9.2586    115.781  38.342639     37.040      8.491   182.8386     3.8819     1.0245     0.0249      0.000     -0.085     -0.124        250 1.8185e+03 0.0000e+00
     -0.088    26.7578     9.2492    115.664  38.421183     37.139      8.491   183.1036     3.8819     1.0916     0.0250     -0.000     -0.086     -0.125        251 1.8177e+03 0.0000e+00
     -0.088    26.7670     9.2335    115.466  38.436651     37.132      8.489   183.3307     4.0720     1.0245     0.0250     -0.001     -0.086     -0.125        252 1.8262e+03 0.0000e+00
     -0.088    26.7744     9.2234    115.337  38.382708     37.070      8.485   183.2550     4.0922     0.9976     0.0250     -0.001     -0.086     -0.125        253 1.8388e+03 0.0000e+00
     -0.088    26.7804     9.2135    115.208  38.428986     37.118      8.477   183.1793     4.1124     1.0648     0.0250     -0.001     -0.086     -0.125        254 1.8453e+03 0.0000e+00
     -0.087    26.7839     9.2098    115.160  38.438377     37.113      8.476   183.3307     4.0841     1.0245     0.0250     -0.001     -0.086     -0.125        255 1.8438e+03 0.0000e+00
     -0.088    26.7860     9.2086    115.141  38.430341     37.108      8.470   183.5200     4.1245     1.0245     0.0250     -0.001     -0.087     -0.125        256 1.8449e+03 0.0000e+00
     -0.089    26.7889     9.2130    115.192  38.438984     37.106      8.467   183.4822     4.1569     0.9842     0.0250     -0.001     -0.087     -0.125        257 1.8525e+03 0.0000e+00
     -0.087    26.7924     9.2224    115.317  38.427617     37.104      8.475   183.9743     4.1367     1.0245     0.0250     -0.000     -0.086     -0.124        258 1.8549e+03 0.0000e+00
     -0.087    26.7945     9.2350    115.485  38.385161     37.048      8.480   184.7314     4.1407     1.0111     0.0249      0.000     -0.086     -0.124        259 1.8586e+03 0.0000e+00
     -0.087    26.7949     9.2287    115.411  38.373173     37.045      8.481   184.5800     4.0235     1.0782     0.0249      0.000     -0.085     -0.124        260 1.8654e+03 0.0000e+00
     -0.087    26.7947     9.1972    115.019  38.383211     37.044      8.479   184.9964     4.0315     0.9842     0.0249      0.001     -0.085     -0.124        261 1.8670e+03 0.0000e+00
     -0.088    26.7941     9.1402    114.303  38.372667     37.044      8.473   184.3907     4.0437     0.9305     0.0249      0.000     -0.085     -0.124        262 1.8700e+03 0.0000e+00
     -0.087    26.7924     9.0854    113.606  38.386295     37.044      8.467   184.6179     4.0235     1.0648     0.0249      0.000     -0.085     -0.124        263 1.8824e+03 0.0000e+00
     -0.087    26.7903     9.0435    113.075  38.425574     37.098      8.465   184.6936     4.0194     1.1588     0.0250      0.001     -0.085     -0.124        264 1.8900e+03 0.0000e+00
     -0.087    26.7894     8.9984    112.505  38.442431     37.100      8.468   184.5800     4.0154     1.0648     0.0250      0.001     -0.085     -0.123        265 1.8935e+03 0.0000e+00
     -0.086    26.7875     8.9400    111.764  38.424642     37.101      8.467   184.6179     4.0315     0.9439     0.0250      0.000     -0.085     -0.123        266 1.9003e+03 0.0000e+00
     -0.087    26.7857     8.8729    110.921  38.388390     37.048      8.468   184.7693     4.0275     1.0245     0.0249      0.000     -0.085     -0.123        267 1.9043e+03 0.0000e+00
     -0.087    26.7890     8.8006    110.017  38.368900     37.049      8.472   184.7693     4.0113     1.0514     0.0249      0.000     -0.085     -0.124        268 1.9074e+03 0.0000e+00
     -0.087    26.7940     8.7524    109.418  38.389575     37.051      8.473   185.5264     3.8819     1.0245     0.0249      0.000     -0.085     -0.124        269 1.9102e+03 0.0000e+00
     -0.086    26.7965     8.7234    109.052  38.421984     37.102      8.478   185.0722     3.9143     1.0648     0.0250      0.000     -0.085     -0.123        270 1.9101e+03 0.0000e+00
     -0.086    26.7975     8.7095    108.873  38.387890     37.044      8.479   185.1479     3.8819     1.0111     0.0249      0.000     -0.084     -0.122        271 1.9158e+03 0.0000e+00
     -0.086    26.7956     8.6830    108.539  38.372679     37.043      8.482   185.3372     3.8577     1.0379     0.0249      0.000     -0.084     -0.122        272 1.9260e+03 0.0000e+00
     -0.086    26.7905     8.6227    107.790  38.381590     37.042      8.479   185.3372     3.7727     1.0648     0.0249      0.000     -0.085     -0.123        273 1.9315e+03 0.0000e+00
     -0.086    26.7868     8.5288    106.620  38.376800     37.043      8.477   185.1479     3.7768     0.9305     0.0249      0.000     -0.085     -0.123        274 1.9471e+03 0.0000e+00
     -0.086    26.7834     8.4150    105.198  38.437964     37.101      8.474   185.0722     3.7889     1.0648     0.0250      0.001     -0.084     -0.122        275 1.9497e+03 0.0000e+00
     -0.086    26.7785     8.2831    103.549  38.424121     37.104      8.471   185.1479     3.7606     1.0782     0.0250      0.001     -0.084     -0.122        276 1.9403e+03 0.0000e+00
     -0.086    26.7758     8.1366    101.718  38.394027     37.052      8.473   184.9964     3.6191     1.0111     0.0249      0.000     -0.084     -0.122        277 1.9566e+03 0.0000e+00
     -0.086    26.7760     7.9732     99.678  38.416093     37.110      8.475   184.8450     3.6272     1.0245     0.0250      0.000     -0.084     -0.122        278 1.9667e+03 0.0000e+00
     -0.086    26.7773     7.7935     97.434  38.396664     37.057      8.478   185.0722     3.6312     1.0916     0.0249      0.000     -0.084     -0.122        279 1.9611e+03 0.0000e+00
     -0.086    26.7762     7.6425     95.550  38.418210     37.111      8.481   185.3372     3.6474     1.1319     0.0250     -0.000     -0.085     -0.123        280 1.9673e+03 0.0000e+00
     -0.087    26.7732     7.5060     93.848  38.389280     37.056      8.482   185.4886     3.6231     1.0111     0.0249     -0.000     -0.085     -0.124        281 1.9809e+03 0.0000e+00
     -0.088    26.7726     7.3967     92.487  38.373341     37.057      8.481   185.5264     3.6393     1.0111     0.0249     -0.001     -0.086     -0.125        282 1.9916e+03 0.0000e+00
     -0.089    26.7745     7.3242     91.584  38.378723     37.059      8.482   185.7914     3.6312     1.0379     0.0249     -0.001     -0.086     -0.126        283 1.9858e+03 0.0000e+00
     -0.089    26.7761     7.2952     91.223  38.382586     37.060      8.482   186.0186     3.6353     1.0648     0.0249     -0.002     -0.086     -0.125        284 1.9807e+03 0.0000e+00
     -0.086    26.7765     7.3027     91.318  38.427858     37.112      8.483   185.6400     3.6150     1.0648     0.0250     -0.001     -0.084     -0.123        285 1.9981e+03 0.0000e+00
     -0.083    26.7766     7.3178     91.507  38.381703     37.057      8.478   184.8450     3.6312     1.1319     0.0249      0.000     -0.083     -0.120        286 1.9987e+03 0.0000e+00
     -0.084    26.7768     7.3224     91.568  38.380699     37.057      8.479   185.4886     3.6474     1.0111     0.0249      0.001     -0.083     -0.121        287 1.9877e+03 0.0000e+00
     -0.088    26.7782     7.3069     91.382  38.369784     37.057      8.479   185.5643     3.6191     1.1588     0.0249      0.001     -0.086     -0.124        288 2.0136e+03 0.0000e+00
     -0.090    26.7801     7.2675     90.893  38.335963     37.003      8.479   185.7914     3.6150     0.9439     0.0249      0.000     -0.087     -0.127        289 2.0290e+03 0.0000e+00
     -0.090    26.7819     7.2042     90.108  38.363465     37.056      8.482   185.5643     3.4654     1.1991     0.0249     -0.001     -0.087     -0.127        290 2.0246e+03 0.0000e+00
     -0.086    26.7850     7.1083     88.914  38.365220     37.027      8.480   185.5643     3.4897     1.2125     0.0249     -0.000     -0.085     -0.123        291 2.0415e+03 0.0000e+00
     -0.084    26.7886     7.0316     87.959  38.363442     37.053      8.481   185.5643     3.5018     1.2528     0.0249     -0.000     -0.083     -0.120        292 2.0466e+03 0.0000e+00
     -0.084    26.7905     6.9408     86.826  38.336016     36.997      8.478   186.1322     3.5503     1.2931     0.0249     -0.000     -0.083     -0.120        293 2.0405e+03 0.0000e+00
     -0.087    26.7915     6.8561     85.766  38.310363     36.994      8.478   186.2457     3.5059     1.0379     0.0249     -0.000     -0.084     -0.123        294 2.0422e+03 0.0000e+00
     -0.088    26.7919     6.7790     84.803  38.336040     36.993      8.482   186.1322     3.4978     1.0648     0.0249      0.001     -0.086     -0.124        295 2.0445e+03 0.0000e+00
     -0.088    26.7921     6.7215     84.085  38.363383     37.046      8.483   186.3214     3.5180     1.1051     0.0249      0.001     -0.086     -0.124        296 2.0529e+03 0.0000e+00
     -0.087    26.7944     6.6650     83.382  38.335658     36.992      8.482   186.3214     3.4978     0.9574     0.0249      0.001     -0.085     -0.123        297 2.0633e+03 0.0000e+00
     -0.086    26.7989     6.6217     82.843  38.370544     37.046      8.480   186.4350     3.5099     1.0648     0.0249      0.000     -0.084     -0.122        298 2.0678e+03 0.0000e+00
     -0.085    26.8021     6.5881     82.428  38.379292     37.044      8.480   186.5864     3.5180     1.0111     0.0249     -0.000     -0.084     -0.122        299 2.0717e+03 0.0000e+00
     -0.086    26.8057     6.5466     81.912  38.324770     36.987      8.480   186.3214     3.5018     0.9976     0.0249     -0.001     -0.084     -0.122        300 2.0752e+03 0.0000e+00
     -0.086    26.8092     6.5168     81.542  38.319746     36.985      8.480   186.4350     3.4897     1.1319     0.0249 3.3542e-11     -0.085     -0.123        301 2.0836e+03 0.0000e+00
     -0.087    26.8116     6.4778     81.057  38.355880     37.009      8.478   186.6243     3.6191     1.0111     0.0249      0.001     -0.085     -0.123        302 2.0857e+03 0.0000e+00
     -0.087    26.8135     6.4504     80.717  38.368786     37.034      8.481   186.5486     3.6676     1.1185     0.0249      0.000     -0.085     -0.123        303 2.0888e+03 0.0000e+00
     -0.086    26.8140     6.4274     80.432  38.333345     36.978      8.483   186.7757     3.6231     0.9842     0.0249      0.000     -0.085     -0.123        304 2.0989e+03 0.0000e+00
     -0.086    26.8144     6.4169     80.308  38.310998     36.976      8.485   186.5107     3.6312     1.0111     0.0249     -0.000     -0.085     -0.123        305 2.0924e+03 0.0000e+00
     -0.086    26.8158     6.4075     80.191  38.337271     36.976      8.484   187.1164     3.6312     1.0379     0.0249     -0.000     -0.085     -0.123        306 2.0901e+03 0.0000e+00
     -0.087    26.8176     6.4050     80.158  38.359972     37.030      8.486   186.9272     3.6474     1.0379     0.0249     -0.001     -0.085     -0.123        307 2.0979e+03 0.0000e+00
     -0.087    26.8195     6.4269     80.434  38.342070     36.975      8.486   186.7000     3.6312     1.1185     0.0249     -0.000     -0.085     -0.123        308 2.0992e+03 0.0000e+00
     -0.087    26.8228     6.4468     80.686  38.300226     36.974      8.484   186.7379     3.6555     1.0111     0.0249     -0.000     -0.085     -0.123        309 2.1001e+03 0.0000e+00
     -0.087    26.8251     6.4659     80.922  38.293400     36.918      8.485   186.9650     3.6312     0.9574     0.0249     -0.000     -0.085     -0.123        310 2.1069e+03 0.0000e+00
     -0.086    26.8269     6.4796     81.096  38.350564     37.024      8.485   187.0407     3.4937     1.0648     0.0249     -0.000     -0.085     -0.123        311 2.1117e+03 0.0000e+00
     -0.086    26.8298     6.4848     81.164  38.347731     36.968      8.485   187.1922     3.5180     0.9708     0.0249     -0.000     -0.085     -0.123        312 2.1161e+03 0.0000e+00
     -0.087    26.8314     6.4866     81.187  38.356248     37.021      8.483   187.0407     3.4897     1.0514     0.0249     -0.000     -0.086     -0.124        313 2.1234e+03 0.0000e+00
     -0.087    26.8338     6.4781     81.079  38.339964     36.965      8.484   187.0029     3.5220     0.9976     0.0249     -0.000     -0.086     -0.124        314 2.1309e+03 0.0000e+00
     -0.087    26.8382     6.4566     80.812  38.367995     37.018      8.484   186.9650     3.5544     1.0648     0.0249     -0.000     -0.085     -0.124        315 2.1351e+03 0.0000e+00
     -0.087    26.8390     6.4301     80.483  38.321363     36.962      8.485   187.3436     3.5544     1.0782     0.0249     -0.000     -0.085     -0.124        316 2.1343e+03 0.0000e+00
     -0.088    26.8376     6.4006     80.114  38.279349     36.905      8.483   187.1922     3.5867     1.0782     0.0249     -0.000     -0.086     -0.125        317 2.1339e+03 0.0000e+00
     -0.088    26.8393     6.3711     79.749  38.331294     36.985      8.486   187.3814     3.5706     1.0379     0.0249     -0.001     -0.086     -0.125        318 2.1343e+03 0.0000e+00
     -0.088    26.8403     6.3523     79.516  38.286378     36.905      8.486   187.7600     3.5787     1.0648     0.0249     -0.001     -0.086     -0.125        319 2.1382e+03 0.0000e+00
     -0.087    26.8392     6.3455     79.431  38.305584     36.958      8.487   187.5329     3.5584     0.9842     0.0249     -0.000     -0.086     -0.124        320 2.1349e+03 0.0000e+00
     -0.087    26.8405     6.3412     79.378  38.277732     36.903      8.491   187.1922     3.5706     1.0514     0.0249     -0.000     -0.086     -0.124        321 2.1336e+03 0.0000e+00
     -0.086    26.8424     6.3436     79.410  38.261717     36.904      8.490   187.6464     3.5787     1.0379     0.0249      0.000     -0.085     -0.123        322 2.1389e+03 0.0000e+00
     -0.087    26.8424     6.3633     79.658  38.295853     36.930      8.491   187.8736     3.5787     1.0245     0.0249      0.000     -0.085     -0.123        323 2.1390e+03 0.0000e+00
     -0.086    26.8420     6.3898     79.989  38.324235     36.956      8.491   187.9114     3.5625     0.9574     0.0249      0.001     -0.085     -0.123        324 2.1467e+03 0.0000e+00
     -0.086    26.8435     6.4109     80.254  38.315379     36.956      8.489   188.7443     3.5787     0.9574     0.0249      0.001     -0.084     -0.122        325 2.1566e+03 0.0000e+00
     -0.085    26.8448     6.4242     80.421  38.277211     36.902      8.485   188.5550     3.5787     1.0648     0.0249      0.001     -0.084     -0.122        326 2.1645e+03 0.0000e+00
     -0.086    26.8454     6.4216     80.394  38.312412     36.955      8.485   189.0093     3.5018     1.0111     0.0249      0.001     -0.084     -0.122        327 2.1723e+03 0.0000e+00
     -0.086    26.8483     6.4218     80.401  38.330895     36.954      8.486   188.4036     3.4978     0.9976     0.0249      0.001     -0.084     -0.122        328 2.1829e+03 0.0000e+00
     -0.086    26.8501     6.4188     80.365  38.283868     36.927      8.483   188.4793     3.4695     1.0111     0.0249      0.001     -0.085     -0.123        329 2.1809e+03 0.0000e+00
     -0.086    26.8495     6.4050     80.192  38.222626     36.844      8.487   188.4036     3.4978     1.0111     0.0249      0.000     -0.085     -0.123        330 2.1793e+03 0.0000e+00
     -0.086    26.8504     6.3764     79.833  38.258802     36.896      8.487   188.3279     3.4412     1.0648     0.0249     -0.000     -0.085     -0.123        331 2.1940e+03 0.0000e+00
     -0.086    26.8524     6.3416     79.399  38.268510     36.897      8.484   188.8957     3.4331     0.9842     0.0249     -0.000     -0.085     -0.123        332 2.1899e+03 0.0000e+00
     -0.087    26.8531     6.3012     78.898  38.269867     36.896      8.483   189.0093     3.4371     0.9842     0.0249     -0.001     -0.085     -0.123        333 2.1860e+03 0.0000e+00
     -0.087    26.8530     6.2709     78.525  38.286775     36.922      8.482   189.3879     3.4331     0.9171     0.0249     -0.001     -0.085     -0.123        334 2.1922e+03 0.0000e+00
     -0.087    26.8530     6.2414     78.153  38.277129     36.894      8.481   189.5015     3.4169     0.9305     0.0249     -0.000     -0.085     -0.123        335 2.1926e+03 0.0000e+00
     -0.087    26.8540     6.2101     77.762  38.311531     36.948      8.481   189.1229     3.5948     1.0379     0.0249     -0.000     -0.085     -0.123        336 2.2008e+03 0.0000e+00
     -0.087    26.8575     6.1824     77.417  38.273624     36.894      8.484   189.1986     3.5989     1.0648     0.0249     -0.000     -0.085     -0.123        337 2.2096e+03 0.0000e+00
     -0.086    26.8602     6.1662     77.217  38.205658     36.840      8.484   189.3122     3.5625     0.9036     0.0249     -0.000     -0.085     -0.123        338 2.2164e+03 0.0000e+00
     -0.087    26.8611     6.1625     77.169  38.277468     36.891      8.483   189.0850     3.5584     1.0111     0.0249     -0.000     -0.085     -0.123        339 2.2291e+03 0.0000e+00
     -0.087    26.8613     6.1538     77.064  38.332565     36.970      8.485   189.1607     3.4937     1.0514     0.0249     -0.000     -0.085     -0.123        340 2.2414e+03 0.0000e+00
     -0.086    26.8612     6.1508     77.027  38.285397     36.889      8.484   189.1229     3.5099     0.9842     0.0249      0.000     -0.084     -0.122        341 2.2537e+03 0.0000e+00
     -0.086    26.8618     6.1478     76.990  38.306505     36.942      8.484   188.8200     3.5220     1.0916     0.0249      0.000     -0.084     -0.122        342 2.2687e+03 0.0000e+00
     -0.085    26.8652     6.1374     76.858  38.276634     36.889      8.484   189.2365     3.4654     0.9171     0.0249      0.001     -0.084     -0.122        343 2.2784e+03 0.0000e+00
     -0.086    26.8687     6.1166     76.595  38.263247     36.888      8.474   189.4257     3.5544     0.9842     0.0249      0.001     -0.084     -0.122        344 2.2793e+03 0.0000e+00
     -0.086    26.8680     6.0967     76.349  38.293504     36.913      8.475   189.4636     3.5827     0.9708     0.0249      0.001     -0.084     -0.122        345 2.2855e+03 0.0000e+00
     -0.086    26.8677     6.0805     76.150  38.268641     36.883      8.476   189.3122     3.5625     1.0111     0.0249      0.001     -0.084     -0.122        346 2.2881e+03 0.0000e+00
     -0.086    26.8702     6.0629     75.929  38.264526     36.884      8.481   189.3879     3.5787     1.0245     0.0249      0.001     -0.084     -0.122        347 2.2887e+03 0.0000e+00
     -0.085    26.8712     6.0577     75.866  38.209640     36.830      8.484   189.1986     3.5665     0.9708     0.0249      0.000     -0.084     -0.121        348 2.2920e+03 0.0000e+00
     -0.084    26.8710     6.0595     75.893  38.218298     36.828      8.487   189.7286     3.5706     1.0111     0.0249      0.000     -0.083     -0.120        349 2.3114e+03 0.0000e+00
     -0.084    26.8730     6.0738     76.070  38.253749     36.881      8.487   189.7665     3.5625     1.0648     0.0249      0.001     -0.082     -0.119        350 2.3205e+03 0.0000e+00
     -0.083    26.8743     6.0917     76.294  38.195184     36.801      8.491   190.1072     3.5787     0.9976     0.0249      0.001     -0.082     -0.119        351 2.3075e+03 0.0000e+00
     -0.085    26.8741     6.1134     76.569  38.202198     36.826      8.486   190.0315     3.4452     0.9842     0.0249      0.001     -0.083     -0.121        352 2.3224e+03 0.0000e+00
     -0.088    26.8725     6.1400     76.904  38.215358     36.826      8.486   190.0315     3.4412     1.0379     0.0249      0.000     -0.086     -0.124        353 2.3406e+03 0.0000e+00
     -0.090    26.8715     6.1882     77.508  38.208467     36.825      8.487   190.1829     3.4290     0.9976     0.0249     -0.001     -0.088     -0.127        354 2.3537e+03 0.0000e+00
     -0.091    26.8742     6.2417     78.176  38.210773     36.827      8.488   189.7286     3.4695     1.0245     0.0249     -0.003     -0.088     -0.128        355 2.3721e+03 0.0000e+00
     -0.089    26.8759     6.2993     78.898  38.242149     36.854      8.488   190.0315     3.4331     0.9976     0.0249     -0.003     -0.087     -0.127        356 2.3781e+03 0.0000e+00
     -0.087    26.8757     6.3716     79.807  38.258405     36.879      8.490   190.0315     3.3643     0.9305     0.0249     -0.003     -0.086     -0.124        357 2.3785e+03 0.0000e+00
     -0.085    26.8779     6.4641     80.969  38.220204     36.824      8.491   189.9557     3.3684     1.0514     0.0249     -0.002     -0.084     -0.122        358 2.3721e+03 0.0000e+00
     -0.085    26.8802     6.5577     82.137  38.200705     36.825      8.492   190.3722     3.3724     1.0245     0.0249     -0.000     -0.084     -0.121        359 2.3675e+03 0.0000e+00
     -0.086    26.8796     6.6348     83.106  38.164026     36.769      8.490   190.3722     3.3765     0.9842     0.0249      0.001     -0.085     -0.123        360 2.3854e+03 0.0000e+00
     -0.089    26.8789     6.7035     83.970  38.206527     36.821      8.489   190.5236     3.4331     1.0111     0.0249      0.002     -0.085     -0.124        361 2.3728e+03 0.0000e+00
     -0.088    26.8812     6.7844     84.981  38.236797     36.849      8.485   190.0315     3.4331     1.0111     0.0249      0.002     -0.085     -0.123        362 2.3580e+03 0.0000e+00
     -0.084    26.8836     6.8430     85.716  38.215339     36.822      8.485   189.9557     3.4533     1.0916     0.0249      0.002     -0.083     -0.120        363 2.3924e+03 0.0000e+00
     -0.083    26.8834     6.8943     86.363  38.203570     36.821      8.481   189.9179     3.4412     0.9574     0.0249      0.002     -0.082     -0.119        364 2.4158e+03 0.0000e+00
     -0.083    26.8821     6.9502     87.062  38.162459     36.765      8.484   190.4479     3.4695     1.0379     0.0249      0.002     -0.082     -0.119        365 2.4138e+03 0.0000e+00
     -0.085    26.8823     6.9875     87.531  38.147854     36.765      8.486   190.8265     3.4290     0.9574     0.0249      0.001     -0.084     -0.122        366 2.4148e+03 0.0000e+00
     -0.090    26.8848     7.0017     87.707  38.132761     36.739      8.485   190.9400     3.4371     1.0648     0.0248     -0.000     -0.086     -0.125        367 2.4125e+03 0.0000e+00
     -0.089    26.8861     7.0226     87.968  38.151580     36.766      8.487   191.1672     3.4412     0.9842     0.0249     -0.000     -0.085     -0.124        368 2.4303e+03 0.0000e+00
     -0.082    26.8843     7.0260     88.012  38.213419     36.818      8.485   189.7665     3.4816     1.0514     0.0249      0.001     -0.082     -0.119        369 2.4335e+03 0.0000e+00
     -0.080    26.8854     7.0251     88.002  38.204111     36.817      8.486   190.1072     3.5099     1.1185     0.0249      0.001     -0.080     -0.116        370 2.4158e+03 0.0000e+00
     -0.082    26.8876     7.0404     88.194  38.163162     36.765      8.485   190.7507     3.5261     1.1588     0.0249      0.001     -0.082     -0.118        371 2.4254e+03 0.0000e+00
     -0.086    26.8867     7.0540     88.364  38.175395     36.790      8.483   190.6750     3.5099     1.0648     0.0249      0.000     -0.085     -0.123        372 2.4263e+03 0.0000e+00
     -0.089    26.8876     7.0529     88.352  38.159225     36.762      8.485   190.9022     3.5463     1.0379     0.0249     -0.000     -0.086     -0.125        373 2.4285e+03 0.0000e+00
     -0.087    26.8897     7.0409     88.203  38.153623     36.763      8.483   190.7507     3.5706     0.9574     0.0249     -0.000     -0.085     -0.124        374 2.4319e+03 0.0000e+00
     -0.085    26.8897     7.0174     87.909  38.152706     36.762      8.485   191.1672     3.6070     1.1319     0.0249      0.000     -0.084     -0.122        375 2.4504e+03 0.0000e+00
     -0.084    26.8900     6.9750     87.378  38.101044     36.707      8.487   191.2429     3.5584     0.9842     0.0248     -0.001     -0.083     -0.121        376 2.4629e+03 0.0000e+00
     -0.085    26.8897     6.9183     86.669  38.099270     36.707      8.485   191.3943     3.5584     0.9439     0.0248     -0.002     -0.083     -0.121        377 2.4472e+03 0.0000e+00
     -0.085    26.8893     6.8579     85.911  38.125251     36.733      8.487   191.4322     3.5706     1.0648     0.0248     -0.001     -0.083     -0.121        378 2.4479e+03 0.0000e+00
     -0.085    26.8899     6.7998     85.186  38.098372     36.707      8.487   192.1136     3.5867     1.0379     0.0248      0.000     -0.084     -0.122        379 2.4576e+03 0.0000e+00
     -0.087    26.8903     6.7523     84.596  38.103060     36.707      8.487   192.3407     3.5787     0.9574     0.0248      0.001     -0.085     -0.123        380 2.4470e+03 0.0000e+00
     -0.086    26.8902     6.7291     84.303  38.089756     36.707      8.486   191.6593     3.5827     1.0782     0.0248      0.001     -0.085     -0.123        381 2.4542e+03 0.0000e+00
     -0.085    26.8907     6.7134     84.104  38.055606     36.652      8.487   191.6215     3.5625     0.9842     0.0248     -0.000     -0.084     -0.122        382 2.4695e+03 0.0000e+00
     -0.085    26.8920     6.7028     83.971  38.115896     36.733      8.488   192.0757     3.5948     1.0648     0.0248     -0.001     -0.083     -0.121        383 2.4592e+03 0.0000e+00
     -0.085    26.8922     6.6986     83.921  38.163031     36.760      8.486   191.8486     3.5463     1.0111     0.0249     -0.000     -0.083     -0.121        384 2.4666e+03 0.0000e+00
     -0.085    26.8924     6.7074     84.036  38.145254     36.759      8.487   192.0757     3.5706     1.0379     0.0249      0.000     -0.083     -0.121        385 2.4610e+03 0.0000e+00
     -0.085    26.8929     6.7348     84.381  38.108358     36.705      8.481   192.0379     3.7161     1.1856     0.0248      0.000     -0.084     -0.122        386 2.4542e+03 0.0000e+00
     -0.088    26.8935     6.7701     84.821  38.090302     36.705      8.478   192.1515     3.6878     1.2393     0.0248     -0.000     -0.084     -0.122        387 2.4659e+03 0.0000e+00
     -0.086    26.8929     6.8126     85.355  38.108403     36.704      8.480   192.5300     3.6959     1.2393     0.0248     -0.000     -0.084     -0.122        388 2.4686e+03 0.0000e+00
     -0.083    26.8943     6.8554     85.893  38.115493     36.731      8.484   192.3029     3.7000     1.2528     0.0248      0.000     -0.084     -0.121        389 2.4599e+03 0.0000e+00
     -0.087    26.8975     6.9308     86.839  38.111139     36.705      8.480   192.2272     3.7242     1.0245     0.0248     -0.000     -0.086     -0.124        390 2.4659e+03 0.0000e+00
     -0.091    26.8965     7.0233     87.995  38.084160     36.704      8.478   192.3786     3.7000     1.0111     0.0248     -0.002     -0.088     -0.127        391 2.4793e+03 0.0000e+00
     -0.091    26.8943     7.0925     88.862  38.060084     36.647      8.481   192.5300     3.6797     1.1319     0.0248     -0.003     -0.088     -0.127        392 2.4728e+03 0.0000e+00
     -0.086    26.8948     7.2028     90.244  38.081777     36.702      8.485   192.2272     3.6878     1.1319     0.0248     -0.002     -0.085     -0.123        393 2.4820e+03 0.0000e+00
     -0.083    26.8967     7.3430     92.001  38.086824     36.677      8.481   191.9622     3.5746     1.0514     0.0248     -0.000     -0.083     -0.121        394 2.4833e+03 0.0000e+00
     -0.088    26.8995     7.4859     93.789  38.083465     36.703      8.482   192.2272     3.5746     1.0379     0.0248      0.000     -0.086     -0.126        395 2.4643e+03 0.0000e+00
     -0.095    26.9001     7.5815     94.989  38.056296     36.648      8.478   192.4165     3.5989     1.0111     0.0248     -0.002     -0.090     -0.131        396 2.4521e+03 0.0000e+00
     -0.093    26.8996     7.6511     95.863  38.090973     36.700      8.481   192.3407     3.5625     0.9842     0.0248     -0.003     -0.090     -0.130        397 2.4611e+03 0.0000e+00
     -0.086    26.9005     7.7089     96.586  38.099631     36.699      8.482   192.1136     3.5544     0.9842     0.0248     -0.001     -0.086     -0.125        398 2.4707e+03 0.0000e+00
     -0.085    26.9019     7.7418     96.996  38.045522     36.646      8.476   192.5300     3.5665     1.0648     0.0248      0.001     -0.085     -0.124        399 2.4605e+03 0.0000e+00
     -0.091    26.9021     7.7282     96.827  38.069329     36.672      8.481   192.0757     3.6070     0.9842     0.0248     -0.001     -0.088     -0.128        400 2.4664e+03 0.0000e+00
     -0.092    26.9005     7.6873     96.314  38.099664     36.698      8.483   192.3786     3.5867     1.0379     0.0248     -0.002     -0.089     -0.129        401 2.4628e+03 0.0000e+00
     -0.088    26.9004     7.6160     95.418  38.096752     36.698      8.480   192.0757     3.5625     0.9574     0.0248     -0.001     -0.088     -0.127        402 2.4560e+03 0.0000e+00
     -0.088    26.9008     7.5305     94.346  38.043292     36.645      8.484   192.8707     3.3684     1.0648     0.0248      0.001     -0.088     -0.127        403 2.4647e+03 0.0000e+00
     -0.093    26.9002     7.4336     93.132  38.047550     36.645      8.487   192.3407     3.3765     1.0916     0.0248      0.001     -0.090     -0.130        404 2.4677e+03 0.0000e+00
     -0.093    26.8995     7.3358     91.908  38.061792     36.672      8.488   192.7572     3.3765     0.9708     0.0248     -0.002     -0.090     -0.130        405 2.4641e+03 0.0000e+00
     -0.087    26.9004     7.2434     90.754  38.055230     36.645      8.489   192.5679     3.3886     1.0782     0.0248     -0.002     -0.086     -0.125        406 2.4579e+03 0.0000e+00
     -0.083    26.9018     7.1443     89.510  38.026055     36.646      8.487   192.1136     3.3724     0.9976     0.0248      0.001     -0.083     -0.120        407 2.4527e+03 0.0000e+00
     -0.084    26.9013     7.0619     88.478  37.979455     36.565      8.490   193.1736     3.3724     1.0111     0.0248      0.004     -0.083     -0.120        408 2.4530e+03 0.0000e+00
     -0.086    26.9002     6.9861     87.533  38.024240     36.644      8.490   192.4165     3.3967     1.0245     0.0248      0.003     -0.085     -0.123        409 2.4683e+03 0.0000e+00
     -0.089    26.9004     6.9179     86.679  38.059304     36.645      8.490   192.9465     3.3684     0.9439     0.0248      0.002     -0.086     -0.125        410 2.4659e+03 0.0000e+00
     -0.089    26.9006     6.8563     85.906  38.054462     36.673      8.489   193.5143     3.4331     0.9574     0.0248      0.002     -0.086     -0.125        411 2.4662e+03 0.0000e+00
     -0.086    26.8989     6.8041     85.253  38.059926     36.645      8.489   193.2115     3.4493     1.0111     0.0248      0.002     -0.085     -0.123        412 2.4585e+03 0.0000e+00
     -0.083    26.8979     6.7515     84.596  38.022843     36.645      8.487   193.0222     3.4654     1.0648     0.0248      0.002     -0.082     -0.119        413 2.4501e+03 0.0000e+00
     -0.081    26.8981     6.7004     83.954  37.981967     36.566      8.486   192.5679     3.4452     1.1453     0.0248      0.001     -0.080     -0.116        414 2.4687e+03 0.0000e+00
     -0.080    26.8993     6.6574     83.416  38.021812     36.647      8.483   192.1893     3.2309     0.9305     0.0248      0.002     -0.079     -0.115        415 2.4630e+03 0.0000e+00
     -0.081    26.9005     6.6186     82.931  37.973257     36.566      8.483   192.6057     3.2673     1.0379     0.0248      0.003     -0.080     -0.116        416 2.4565e+03 0.0000e+00
     -0.083    26.8996     6.5840     82.498  37.953409     36.566      8.484   193.0979     3.2592     0.9842     0.0248      0.004     -0.081     -0.118        417 2.4428e+03 0.0000e+00
     -0.086    26.9002     6.5505     82.077  38.046513     36.645      8.482   192.7950     3.2673     1.0648     0.0248      0.003     -0.083     -0.121        418 2.4276e+03 0.0000e+00
     -0.086    26.9030     6.5200     81.697  38.035359     36.646      8.482   193.1736     3.2471     1.0245     0.0248      0.001     -0.083     -0.121        419 2.4377e+03 0.0000e+00
     -0.083    26.9033     6.4841     81.249  37.967290     36.565      8.481   193.3629     3.4331     1.0111     0.0248     -0.000     -0.081     -0.118        420 2.4510e+03 0.0000e+00
     -0.080    26.9023     6.4544     80.877  38.012578     36.617      8.481   192.6436     3.4412     1.0648     0.0248     -0.000     -0.079     -0.115        421 2.4589e+03 0.0000e+00
     -0.080    26.9033     6.4261     80.520  38.038320     36.643      8.478   193.0979     3.4210     0.9842     0.0248     -0.000     -0.079     -0.115        422 2.4545e+03 0.0000e+00
     -0.082    26.9042     6.3914     80.086  37.964915     36.563      8.477   193.2872     3.4412     1.0648     0.0248      0.000     -0.080     -0.116        423 2.4525e+03 0.0000e+00
     -0.082    26.9035     6.3650     79.759  37.955623     36.563      8.477   192.9843     3.0934     1.0916     0.0248      0.001     -0.081     -0.117        424 2.4489e+03 0.0000e+00
     -0.082    26.9038     6.3580     79.668  37.960900     36.562      8.480   192.9465     3.0409     0.9842     0.0248      0.002     -0.081     -0.117        425 2.4314e+03 0.0000e+00
     -0.082    26.9048     6.3588     79.679  37.958349     36.562      8.479   193.5143     3.0449     1.0379     0.0248      0.002     -0.081     -0.117        426 2.4042e+03 0.0000e+00
     -0.082    26.9052     6.3599     79.694  37.958799     36.562      8.482   193.5143     3.0692     0.8768     0.0248      0.001     -0.080     -0.116        427 2.4045e+03 0.0000e+00
     -0.081    26.9050     6.3827     79.980  37.960339     36.561      8.486   193.2115     3.0772     0.9842     0.0248     -0.000     -0.079     -0.115        428 2.4109e+03 0.0000e+00
     -0.079    26.9059     6.4117     80.342  37.956432     36.561      8.485   192.7193     3.0772     1.0916     0.0248      0.000     -0.079     -0.114        429 2.4089e+03 0.0000e+00
     -0.080    26.9070     6.4564     80.901  37.904339     36.508      8.490   192.8707     3.0409     0.9708     0.0248      0.001     -0.079     -0.114        430 2.4299e+03 0.0000e+00
     -0.081    26.9067     6.5461     82.026  37.906523     36.507      8.491   193.4765     3.0409     0.9574     0.0248      0.001     -0.080     -0.115        431 2.4288e+03 0.0000e+00
     -0.082    26.9053     6.6947     83.887  37.953713     36.560      8.493   193.8172     3.1500     0.9842     0.0248      0.001     -0.081     -0.117        432 2.4212e+03 0.0000e+00
     -0.083    26.9064     6.8615     85.978  37.964255     36.560      8.491   193.4386     3.1945     1.0514     0.0248     -0.000     -0.081     -0.118        433 2.4066e+03 0.0000e+00
     -0.083    26.9081     7.0069     87.803  37.952725     36.561      8.491   193.8172     3.1986     0.9976     0.0248     -0.001     -0.081     -0.118        434 2.3757e+03 0.0000e+00
     -0.080    26.9068     7.1193     89.212  37.968061     36.561      8.489   193.2872     3.1500     0.9439     0.0248     -0.001     -0.080     -0.116        435 2.3860e+03 0.0000e+00
     -0.081    26.9070     7.1934     90.141  37.945170     36.559      8.490   193.6658     3.3077     1.0245     0.0248     -0.001     -0.081     -0.117        436 2.4102e+03 0.0000e+00
     -0.087    26.9081     7.2387     90.709  37.921891     36.506      8.494   194.1200     3.2835     1.0245     0.0248     -0.002     -0.084     -0.122        437 2.4237e+03 0.0000e+00
     -0.089    26.9080     7.2268     90.560  37.937710     36.560      8.492   194.3472     3.3077     1.0648     0.0248     -0.003     -0.086     -0.124        438 2.4269e+03 0.0000e+00
     -0.086    26.9068     7.1730     89.887  37.866162     36.452      8.493   193.8550     3.3199     1.0648     0.0247     -0.003     -0.085     -0.123        439 2.4250e+03 0.0000e+00
     -0.085    26.9064     7.0981     88.951  37.892287     36.505      8.492   194.5365     3.3199     1.0111     0.0248     -0.002     -0.084     -0.122        440 2.4060e+03 0.0000e+00
     -0.087    26.9071     7.0311     88.115  37.905199     36.506      8.493   194.1200     3.1622     1.0379     0.0248     -0.002     -0.085     -0.123        441 2.3834e+03 0.0000e+00
     -0.089    26.9065     6.9686     87.332  37.850093     36.453      8.492   194.1958     3.1905     1.0111     0.0247     -0.003     -0.085     -0.124        442 2.3521e+03 0.0000e+00
     -0.085    26.9070     6.9071     86.563  37.901542     36.506      8.493   194.0065     3.2147     1.0648     0.0248     -0.002     -0.083     -0.121        443 2.2967e+03 0.0000e+00
     -0.081    26.9088     6.8794     86.215  37.900493     36.506      8.492   193.8550     3.1905     1.0648     0.0248      0.000     -0.081     -0.118        444 2.2995e+03 0.0000e+00
     -0.084    26.9094     6.8513     85.858  37.910721     36.506      8.490   194.3472     3.1217     1.0245     0.0248      0.002     -0.083     -0.119        445 2.3388e+03 0.0000e+00
     -0.087    26.9099     6.8213     85.470  37.888815     36.505      8.488   194.9908     3.1177     0.9842     0.0248      0.002     -0.085     -0.123        446 2.3611e+03 0.0000e+00
     -0.088    26.9103     6.7885     85.053  37.868434     36.451      8.488   195.2558     3.1258     1.0245     0.0247     -0.000     -0.085     -0.123        447 2.3821e+03 0.0000e+00
     -0.084    26.9098     6.7445     84.496  37.936084     36.558      8.486   194.0822     3.1177     1.0111     0.0248      0.000     -0.081     -0.118        448 2.3984e+03 0.0000e+00
     -0.077    26.9105     6.6988     83.916  37.923268     36.504      8.481   193.7793     3.1905     1.0648     0.0248      0.003     -0.077     -0.111        449 2.4023e+03 0.0000e+00
     -0.074    26.9127     6.6509     83.307  37.884383     36.504      8.485   193.2872     3.1905     1.0648     0.0248      0.005     -0.073     -0.106        450 2.3860e+03 0.0000e+00
     -0.072    26.9144     6.6058     82.737  37.865832     36.450      8.484   193.0979     3.1864     1.0648     0.0247      0.006     -0.070     -0.102        451 2.3529e+03 0.0000e+00
     -0.069    26.9152     6.5728     82.320  37.887033     36.502      8.487   192.4922     3.1824     1.0514     0.0248      0.008     -0.067     -0.097        452 2.3288e+03 0.0000e+00
     -0.065    26.9155     6.5689     82.273  37.917320     36.501      8.487   192.6436     3.1743     0.9574     0.0248      0.011     -0.064     -0.093        453 2.2948e+03 0.0000e+00
     -0.062    26.9149     6.5909     82.545  37.887459     36.500      8.485   192.3407     3.1783     1.0782     0.0248      0.014     -0.061     -0.089        454 2.2537e+03 0.0000e+00
     -0.061    26.9113     6.6768     83.615  37.864871     36.446      8.485   192.3029     3.1743     0.9574     0.0247      0.013     -0.060     -0.087        455 2.2504e+03 0.0000e+00
     -0.062    26.9050     6.8336     85.568  37.886108     36.501      8.488   192.0379     3.1783     0.9574     0.0248      0.011     -0.061     -0.089        456 2.2649e+03 0.0000e+00
     -0.065    26.9004     7.0572     88.358  37.861031     36.449      8.488   192.3029     3.2713     1.0782     0.0247      0.008     -0.062     -0.090        457 2.2760e+03 0.0000e+00
     -0.064    26.8970     7.3426     91.920  37.836761     36.454      8.488   192.1515     3.2511     0.9439     0.0247      0.005     -0.062     -0.090        458 2.3012e+03 0.0000e+00
     -0.061    26.8911     7.6796     96.110  37.856992     36.457      8.489   192.2650     3.2309     0.9708     0.0247      0.004     -0.061     -0.088        459 2.3276e+03 0.0000e+00
     -0.061    26.8854     7.9601     99.592  37.895178     36.513      8.490   192.3407     3.2390     1.0648     0.0248      0.002     -0.060     -0.087        460 2.3341e+03 0.0000e+00
     -0.062    26.8817     8.1974    102.540  37.907886     36.517      8.488   192.1893     3.2592     1.0782     0.0248      0.001     -0.060     -0.087        461 2.3359e+03 0.0000e+00
     -0.063    26.8802     8.4171    105.269  37.900501     36.521      8.489   192.3029     3.1177     1.0111     0.0248     -0.000     -0.058     -0.085        462 2.3355e+03 0.0000e+00
     -0.056    26.8802     8.5788    107.286  37.904370     36.524      8.488   192.0757     3.1258     1.0648     0.0248      0.002     -0.051     -0.074        463 2.3137e+03 0.0000e+00
     -0.040    26.8783     8.6745    108.482  37.903074     36.525      8.489   191.5079     3.1136     1.0379     0.0248      0.008     -0.035     -0.051        464 2.3287e+03 0.0000e+00
     -0.014    26.8743     8.6663    108.373  38.020761     36.633      8.485   191.5457     3.0975     0.9574     0.0248      0.019     -0.010     -0.015        465 2.3210e+03 0.0000e+00
      0.024    26.8677     8.5738    107.209  38.084183     36.715      8.475   191.8486     3.1379     1.0245     0.0248      0.035      0.019      0.027        466 2.3388e+03 0.0000e+00
      0.046    26.8616     8.4255    105.353  38.061437     36.664      8.472   191.3565     3.1177     1.1319     0.0248      0.052      0.042      0.060        467 2.3152e+03 0.0000e+00
      0.058    26.8539     8.2517    103.182  38.197378     36.830      8.471   191.5836     3.1460     1.0111     0.0249      0.066      0.059      0.085        468 2.3531e+03 0.0000e+00
      0.077    26.8381     8.0586    100.769  38.211621     36.835      8.472   191.9622     3.1177     0.9976     0.0249      0.077      0.077      0.112        469 1.8355e+03 0.0000e+00
      0.100    26.8221     7.8774     98.500  38.221682     36.840      8.472   192.0757     3.2471     1.0648     0.0249      0.085      0.099      0.144        470 1.6572e+03 0.0000e+00
      0.126    26.8102     7.7451     96.828  38.333170     36.986      8.472   191.6215     3.2430     0.9574     0.0249      0.089      0.124      0.179        471 1.4360e+03 0.0000e+00
      0.152    26.8008     7.6740     95.908  38.221191     36.863      8.472   191.5457     3.2471     1.0916     0.0249      0.090      0.147      0.213        472 1.7040e+03 0.0000e+00
      0.171    26.7975     7.6923     96.070  38.212739     36.871      8.475   191.2429     3.2673     1.0648     0.0249      0.087      0.167      0.243        473 2.6528e+03 0.0000e+00
      0.189    26.7968     7.7689     96.945  38.254712     36.932      8.475   191.4700     3.2188     1.2393     0.0249      0.083      0.185      0.268        474 1.6513e+03 0.0000e+00
      0.205    26.7936     7.8711     98.115  38.287607     36.934      8.475   191.5836     3.2673     1.3199     0.0249      0.083      0.201      0.291        475 1.4279e+03 0.0000e+00
      0.220    26.7903     7.9621     99.098  38.320111     37.015      8.478   191.3943     3.2471     1.2125     0.0249      0.082      0.216      0.314        476 1.7646e+03 0.0000e+00
      0.237    26.7894     8.0326     99.762  38.243925     36.883      8.478   191.6215     3.2673     1.2931     0.0249      0.078      0.232      0.338        477 9.7626e+02 0.0000e+00
      0.255    26.7903     8.0996    100.343  38.293437     36.993      8.480   192.0757     3.2592     0.9976     0.0249      0.073      0.250      0.364        478 1.2366e+03 0.0000e+00
      0.275    26.7910     8.1895    101.223  38.288156     36.940      8.479   192.1515     3.2471     0.9574     0.0249      0.070      0.270      0.391        479 1.3668e+03 0.0000e+00
      0.295    26.7887     8.3259    102.643  38.250498     36.939      8.481   192.7193     3.2147     1.0782     0.0249      0.068      0.292      0.424        480 1.2197e+03 0.0000e+00
      0.326    26.7803     8.4581    104.033  38.280980     36.939      8.481   192.7193     3.2511     1.1453     0.0249      0.073      0.320      0.465        481 1.7153e+03 0.0000e+00
      0.358    26.7606     8.5389    104.808  38.279883     36.967      8.483   192.8329     3.4331     1.0648     0.0249      0.080      0.351      0.510        482 1.0330e+03 0.0000e+00
      0.391    26.7230     8.5971    105.303  38.281526     36.947      8.488   193.7793     3.4088     1.0245     0.0249      0.090      0.382      0.555        483 7.4670e+02 0.0000e+00
      0.422    26.6758     8.6819    106.127  38.308603     37.014      8.492   194.0065     3.4331     1.0648     0.0249      0.100      0.410      0.596        484 1.1492e+03 0.0000e+00
      0.443    26.6159     8.7877    107.250  38.275860     36.987      8.498   194.7258     3.4533     1.0379     0.0249      0.106      0.435      0.631        485 9.8003e+02 0.0000e+00
      0.467    26.5318     8.9175    108.678  38.262969     37.021      8.509   195.6343     3.4452     1.1185     0.0249      0.109      0.458      0.664        486 8.8027e+02 0.0000e+00
      0.491    26.4121     9.0145    109.694  38.295010     37.091      8.519   196.1265     3.4533     1.1991     0.0249      0.110      0.481      0.698        487 1.0047e+03 0.0000e+00
      0.512    26.2768     9.0974    110.516  38.147036     37.016      8.527   196.4293     3.4654     1.2931     0.0249      0.107      0.504      0.730        488 9.6972e+02 0.0000e+00
      0.537    26.1460     9.1693    111.229  37.972584     36.911      8.537   197.1108     3.4331     1.2528     0.0248      0.102      0.527      0.764        489 8.2469e+02 0.0000e+00
      0.562    26.0065     9.2189    111.684  37.889285     36.956      8.548   197.5650     3.4210     1.2393     0.0248      0.097      0.551      0.799        490 7.5098e+02 0.0000e+00
      0.586    25.8784     9.2677    112.165  37.746531     36.884      8.556   197.9058     3.5787     1.0514     0.0247      0.094      0.574      0.833        491 8.1500e+02 0.0000e+00
      0.610    25.7650     9.3024    112.503  37.616414     36.878      8.562   198.1329     3.5827     1.0111     0.0247      0.093      0.599      0.868        492 9.6148e+02 0.0000e+00
      0.635    25.6491     9.3097    112.509  37.487729     36.832      8.565   198.5493     3.5787     1.0245     0.0246      0.094      0.624      0.904        493 7.5244e+02 0.0000e+00
      0.661    25.5410     9.2598    111.810  37.372854     36.805      8.568   199.0415     3.5867     1.0111     0.0246      0.095      0.650      0.942        494 7.1125e+02 0.0000e+00
      0.692    25.4520     9.1961    110.933  37.314530     36.833      8.570   199.7229     3.7525     1.2393     0.0246      0.098      0.680      0.986        495 6.7857e+02 0.0000e+00
      0.728    25.3748     9.1438    110.189  37.204449     36.803      8.571   200.2529     3.7687     1.2662     0.0245      0.103      0.713      1.033        496 6.7563e+02 0.0000e+00
      0.759    25.2913     9.0916    109.427  37.153982     36.811      8.573   200.6693     3.7647     1.2662     0.0245      0.108      0.743      1.078        497 7.3262e+02 0.0000e+00
      0.786    25.2014     9.0777    109.138  37.140102     36.868      8.575   200.5936     3.7606     1.2393     0.0245      0.112      0.770      1.117        498 6.4243e+02 0.0000e+00
      0.809    25.1207     9.1024    109.318  37.014145     36.789      8.576   200.6693     3.8294     1.0782     0.0245      0.114      0.794      1.152        499 6.4129e+02 0.0000e+00
      0.833    25.0509     9.1835    110.218  36.895538     36.746      8.578   200.6693     3.8374     1.2931     0.0244      0.113      0.818      1.187        500 6.0493e+02 0.0000e+00
      0.862    24.9972     9.2350    110.766  36.902174     36.803      8.577   201.3508     3.8334     1.2125     0.0244      0.112      0.845      1.226        501 5.5920e+02 0.0000e+00
      0.891    24.9574     9.2494    110.867  36.887289     36.856      8.579   201.2372     3.8415     1.2125     0.0244      0.110      0.875      1.269        502 6.4110e+02 0.0000e+00
      0.924    24.9178     9.2320    110.595  36.854776     36.839      8.583   201.6915     3.8051     1.1856     0.0244      0.109      0.906      1.314        503 6.2157e+02 0.0000e+00
      0.958    24.8709     9.2600    110.848  36.853684     36.896      8.580   201.9186     4.0073     1.2662     0.0244      0.109      0.939      1.362        504 5.4445e+02 0.0000e+00
      0.992    24.8194     9.3218    111.534  36.799692     36.841      8.580   202.2215     4.0194     1.2931     0.0244      0.113      0.973      1.411        505 5.1260e+02 0.0000e+00
      1.025    24.7623     9.3710    112.083  36.773693     36.876      8.585   202.5243     4.0154     1.2931     0.0244      0.119      1.004      1.456        506 4.7122e+02 0.0000e+00
      1.053    24.6985     9.4237    112.671  36.678447     36.802      8.593   202.4486     4.0275     1.1856     0.0243      0.123      1.033      1.498        507 4.6846e+02 0.0000e+00
      1.081    24.6363     9.4506    112.963  36.591998     36.759      8.599   202.8651     4.1529     0.9708     0.0243      0.124      1.062      1.539        508 4.4945e+02 0.0000e+00
      1.112    24.5803     9.4589    113.024  36.614374     36.836      8.604   202.8651     4.1326     0.9036     0.0243      0.124      1.094      1.586        509 4.1601e+02 0.0000e+00
      1.154    24.5427     9.4604    113.013  36.591313     36.853      8.605   203.0922     4.1529     0.9708     0.0243      0.126      1.131      1.639        510 4.1899e+02 0.0000e+00
      1.191    24.5091     9.4692    113.091  36.531750     36.840      8.605   203.0922     4.1407     0.9708     0.0243      0.128      1.167      1.693        511 4.0673e+02 0.0000e+00
      1.226    24.4745     9.4493    112.825  36.480912     36.810      8.607   203.3951     4.3186     1.2259     0.0243      0.130      1.201      1.743        512 3.8025e+02 0.0000e+00
      1.258    24.4426     9.4284    112.557  36.476647     36.835      8.607   203.5086     4.3267     1.1856     0.0243      0.132      1.233      1.788        513 3.6290e+02 0.0000e+00
      1.285    24.4045     9.4376    112.645  36.477757     36.861      8.610   203.6979     4.3429     1.1991     0.0243      0.132      1.263      1.832        514 3.5688e+02 0.0000e+00
      1.320    24.3775     9.4469    112.729  36.449888     36.856      8.607   203.9251     4.3591     1.2125     0.0243      0.134      1.295      1.877        515 3.5143e+02 0.0000e+00
      1.353    24.3578     9.4587    112.836  36.422371     36.857      8.609   204.0765     5.1476     1.2931     0.0243      0.134      1.325      1.921        516 3.4710e+02 0.0000e+00
      1.376    24.3386     9.4745    113.001  36.423042     36.877      8.612   204.2279     5.1395     1.2528     0.0243      0.129      1.351      1.959        517 3.3405e+02 0.0000e+00
      1.405    24.3238     9.4963    113.231  36.419406     36.891      8.609   204.4172     5.1476     1.2931     0.0243      0.123      1.378      1.999        518 3.2261e+02 0.0000e+00
      1.434    24.3066     9.5333    113.643  36.367587     36.850      8.609   204.9472     5.1597     1.2393     0.0242      0.118      1.406      2.039        519 3.2274e+02 0.0000e+00
      1.462    24.2920     9.5659    114.001  36.339246     36.832      8.607   205.0608     5.5277     1.2393     0.0242      0.115      1.434      2.079        520 3.0474e+02 0.0000e+00
      1.490    24.2792     9.5724    114.046  36.365710     36.873      8.608   205.2879     5.5520     1.2393     0.0242      0.113      1.459      2.116        521 2.8918e+02 0.0000e+00
      1.511    24.2662     9.5432    113.660  36.364321     36.884      8.604   205.2879     5.5317     1.2125     0.0242      0.110      1.481      2.149        522 2.9414e+02 0.0000e+00
      1.532    24.2566     9.5172    113.307  36.311324     36.837      8.603   205.4015     5.5236     1.2528     0.0242      0.105      1.504      2.181        523 2.8888e+02 0.0000e+00
      1.558    24.2471     9.4985    113.034  36.313035     36.847      8.600   205.2501     5.7339     1.2528     0.0242      0.101      1.529      2.217        524 2.7555e+02 0.0000e+00
      1.586    24.2337     9.4765    112.714  36.362197     36.910      8.595   205.9694     5.7218     1.2125     0.0242      0.101      1.557      2.257        525 2.6590e+02 0.0000e+00
      1.617    24.2184     9.4607    112.471  36.339124     36.890      8.591   206.4236     5.7299     1.2259     0.0242      0.101      1.588      2.303        526 2.5412e+02 0.0000e+00
      1.657    24.2060     9.4519    112.313  36.252776     36.814      8.581   207.1808     5.7218     1.2393     0.0242      0.104      1.623      2.355        527 2.4516e+02 0.0000e+00
      1.692    24.1925     9.4366    112.080  36.202734     36.769      8.568   207.4079     5.6894     1.3065     0.0242      0.110      1.657      2.404        528 2.3788e+02 0.0000e+00
      1.720    24.1784     9.4194    111.817  36.253117     36.835      8.554   207.2565     6.1140     1.1856     0.0242      0.116      1.688      2.449        529 2.2799e+02 0.0000e+00
      1.754    24.1646     9.4009    111.540  36.308718     36.902      8.539   207.2565     6.1261     1.2393     0.0242      0.123      1.720      2.495        530 2.1900e+02 0.0000e+00
      1.789    24.1489     9.3693    111.107  36.252181     36.856      8.520   208.1272     6.0898     1.1856     0.0242      0.128      1.753      2.542        531 2.1151e+02 0.0000e+00
      1.820    24.1308     9.3239    110.511  36.234507     36.838      8.500   208.3165     6.0857     1.0916     0.0242      0.130      1.783      2.587        532 2.0675e+02 0.0000e+00
      1.847    24.1103     9.2545    109.625  36.241746     36.878      8.492   208.6572     6.4699     1.4945     0.0242      0.129      1.811      2.628        533 2.0031e+02 0.0000e+00
      1.876    24.0865     9.1819    108.682  36.213523     36.835      8.477   209.2629     6.4820     1.4408     0.0242      0.126      1.838      2.667        534 1.9443e+02 0.0000e+00
      1.902    24.0593     9.0813    107.403  36.180663     36.850      8.468   209.9065     6.4658     1.4676     0.0242      0.121      1.865      2.707        535 1.8932e+02 0.0000e+00
      1.930    24.0328     8.9708    106.018  36.134355     36.782      8.458   209.6794     6.4779     1.3871     0.0241      0.118      1.894      2.747        536 1.8331e+02 0.0000e+00
      1.962    24.0078     8.8450    104.472  36.152528     36.860      8.451   209.8308     6.8500     1.2662     0.0242      0.116      1.925      2.791        537 1.7771e+02 0.0000e+00
      1.997    23.9826     8.7304    103.074  36.128401     36.823      8.440   210.3229     6.8580     1.1991     0.0241      0.115      1.958      2.840        538 1.7180e+02 0.0000e+00
      2.031    23.9551 -9.990e-29 -9.990e-29  36.194053     36.927      8.429   210.8151     6.8419     1.1588     0.0242      0.117      1.992      2.889        539 1.6556e+02 0.0000e+00
      2.064    23.9273 -9.990e-29 -9.990e-29  36.308109     37.060      8.410   211.1558     6.8702     1.2528     0.0242      0.120      2.023      2.934        540 1.6026e+02 0.0000e+00
      2.091    23.8992 -9.990e-29 -9.990e-29  36.372038     37.138      8.393   211.3451     8.1237     1.6153     0.0243      0.122      2.050      2.974        541 1.5640e+02 0.0000e+00
      2.116    23.8717 -9.990e-29 -9.990e-29  36.411099     37.216      8.376   211.2315     8.1156     1.6422     0.0243      0.122      2.076      3.012        542 1.5125e+02 0.0000e+00
      2.145    23.8402 -9.990e-29 -9.990e-29  36.407808     37.209      8.352   212.4429     8.0994     1.6288     0.0243      0.121      2.103      3.050        543 1.4734e+02 0.0000e+00
      2.171    23.8002 -9.990e-29 -9.990e-29  36.465123     37.316      8.330   211.9129     8.1278     1.6959     0.0243      0.119      2.128      3.087        544 1.4419e+02 0.0000e+00
      2.194    23.7553 -9.990e-29 -9.990e-29  36.547400     37.397      8.310   211.1558     8.6413     1.6422     0.0243      0.113      2.149      3.117        545 1.4084e+02 0.0000e+00
      2.209    23.7177 -9.990e-29 -9.990e-29  36.661344     37.571      8.288   211.7994     8.6170     1.5885     0.0244      0.105      2.163      3.137        546 1.3960e+02 0.0000e+00
      2.215    23.6848 -9.990e-29 -9.990e-29  36.797892     37.720      8.275   211.8751     8.6251     1.6153     0.0244      0.094      2.172      3.150        547 1.3920e+02 0.0000e+00
      2.221    23.6657 -9.990e-29 -9.990e-29  36.881702     37.865      8.265   212.6701     8.6170     1.6422     0.0245      0.081      2.177      3.159        548 1.3808e+02 0.0000e+00
      2.226 -9.990e-29 -9.990e-29 -9.990e-29  36.942638     37.917      8.254   212.2915     8.6009     1.6422     0.0245      0.067      2.182      3.164        549 1.3758e+02 0.0000e+00
      2.226 -9.990e-29 -9.990e-29 -9.990e-29  36.989011     38.021      8.244   212.4051     8.5766     1.6288     0.0245      0.053      2.183      3.166        550 1.3801e+02 0.0000e+00
