* Sea-Bird SBE19plus  Data File:
* FileName = C:\DATA\080918_bvr50_0004.hex
* Software version 2.6.3.104
* Temperature SN = 7809
* Conductivity SN = 7809
* System UpLoad Time = Aug 09 2018 20:25:57
* <ApplicationData>
* <Seaterm232>
* <SoftwareVersion>2.6.3.104</SoftwareVersion>
* <BuildDate>30-Jun-2017</BuildDate>
* </Seaterm232>
* </ApplicationData>
* <InstrumentState>
* <HardwareData DeviceType='SBE19plus' SerialNumber='01907809'>
*
*    <Manufacturer>Sea-Bird Electronics, Inc.</Manufacturer>
*
*    <FirmwareVersion>3.1.8</FirmwareVersion>
*
*    <FirmwareDate>Mar  9 2016 16:22:29</FirmwareDate>
*
*    <CommandSetVersion>1.4</CommandSetVersion>
*
*    <PCBAssembly PCBSerialNum='120721' AssemblyNum='41054J'/>
*
*    <PCBAssembly PCBSerialNum='120715' AssemblyNum='41967A'/>
*
*    <PCBAssembly PCBSerialNum='116699' AssemblyNum='41606'/>
*
*    <PCBAssembly PCBSerialNum='120719' AssemblyNum='41059D'/>
*
*    <MfgDate>28-Apr-2017</MfgDate>
*
*    <InternalSensors>
*
*       <Sensor id='Main Temperature'>
*
*          <type>temperature0</type>
*
*          <SerialNumber>01907809</SerialNumber>
*
*       </Sensor>
*
*       <Sensor id='Main Conductivity'>
*
*          <type>conductivity-0</type>
*
*          <SerialNumber>01907809</SerialNumber>
*
*       </Sensor>
*
*       <Sensor id='Main Pressure'>
*
*          <type>strain-0</type>
*
*          <SerialNumber>10586018</SerialNumber>
*
*       </Sensor>
*
*    </InternalSensors>
*
*    <ExternalSensors>
*
*       <Sensor id='volt 0'>
*
*          <type>pH</type>
*
*          <SerialNumber>27-0363</SerialNumber>
*
*       </Sensor>
*
*       <Sensor id='volt 1'>
*
*          <type>ORP</type>
*
*          <SerialNumber>27-0363</SerialNumber>
*
*       </Sensor>
*
*       <Sensor id='volt 2'>
*
*          <type>OXY</type>
*
*          <SerialNumber>43-0434</SerialNumber>
*
*       </Sensor>
*
*       <Sensor id='volt 3'>
*
*          <type>PAR</type>
*
*          <SerialNumber>1122</SerialNumber>
*
*       </Sensor>
*
*       <Sensor id='volt 4'>
*
*          <type>ECO AFL/FL</type>
*
*          <SerialNumber>FLNTURT-2496</SerialNumber>
*
*       </Sensor>
*
*       <Sensor id='volt 5'>
*
*          <type>ECO-NTU</type>
*
*          <SerialNumber>FLNTURT-2496</SerialNumber>
*
*       </Sensor>
*
*       <Sensor id='serial'>
*
*          <type>not assigned</type>
*
*          <SerialNumber>not assigned</SerialNumber>
*
*       </Sensor>
*
*    </ExternalSensors>
*
* </HardwareData>
* <StatusData DeviceType='SBE19plus' SerialNumber='01907809'>
*
*    <DateTime>2018-08-10T00:24:11</DateTime>
*
*    <LoggingState>not logging</LoggingState>
*
*    <EventSummary numEvents='0'/>
*
*    <Power>
*
*       <vMain>13.2</vMain>
*
*       <vLith>8.8</vLith>
*
*       <iMain>63.3</iMain>
*
*       <iPump>46.7</iPump>
*
*       <iExt01>13.4</iExt01>
*
*       <iExt2345>40.9</iExt2345>
*
*    </Power>
*
*    <MemorySummary>
*
*       <Bytes>124775</Bytes>
*
*       <Samples>5425</Samples>
*
*       <SamplesFree>2855363</SamplesFree>
*
*       <SampleLength>23</SampleLength>
*
*       <Profiles>7</Profiles>
*
*    </MemorySummary>
*
* </StatusData>
* <ConfigurationData DeviceType='SBE19plus' SerialNumber='01907809'>
*
*    <ProfileMode>
*
*       <ScansToAverage>1</ScansToAverage>
*
*       <MinimumCondFreq>5</MinimumCondFreq>
*
*       <PumpDelay>45</PumpDelay>
*
*       <AutoRun>no</AutoRun>
*
*       <IgnoreSwitch>no</IgnoreSwitch>
*
*    </ProfileMode>
*
*    <Battery>
*
*       <Type>alkaline</Type>
*
*       <CutOff>7.5</CutOff>
*
*    </Battery>
*
*    <DataChannels>
*
*       <ExtVolt0>yes</ExtVolt0>
*
*       <ExtVolt1>yes</ExtVolt1>
*
*       <ExtVolt2>yes</ExtVolt2>
*
*       <ExtVolt3>yes</ExtVolt3>
*
*       <ExtVolt4>yes</ExtVolt4>
*
*       <ExtVolt5>yes</ExtVolt5>
*
*       <SBE38>no</SBE38>
*
*       <WETLABS>no</WETLABS>
*
*       <OPTODE>no</OPTODE>
*
*       <SBE63>no</SBE63>
*
*       <SeaFET>no</SeaFET>
*
*       <GTD>no</GTD>
*
*    </DataChannels>
*
*    <EchoCharacters>yes</EchoCharacters>
*
*    <OutputExecutedTag>yes</OutputExecutedTag>
*
*    <OutputFormat>raw HEX</OutputFormat>
*
* </ConfigurationData>
* <CalibrationCoefficients DeviceType='SBE19plus' SerialNumber='01907809'>
*
*    <Calibration format='TEMP1' id='Main Temperature'>
*
*       <SerialNum>01907809</SerialNum>
*
*       <CalDate>09-Mar-18</CalDate>
*
*       <TA0>1.210932e-03</TA0>
*
*       <TA1>2.843566e-04</TA1>
*
*       <TA2>-1.945074e-06</TA2>
*
*       <TA3>2.128067e-07</TA3>
*
*       <TOFFSET>0.000000e+00</TOFFSET>
*
*    </Calibration>
*
*    <Calibration format='WBCOND0' id='Main Conductivity'>
*
*       <SerialNum>01907809</SerialNum>
*
*       <CalDate>09-Mar-18</CalDate>
*
*       <G>-1.006721e+00</G>
*
*       <H>1.269065e-01</H>
*
*       <I>-1.405844e-04</I>
*
*       <J>2.478371e-05</J>
*
*       <CPCOR>-9.570000e-08</CPCOR>
*
*       <CTCOR>3.250000e-06</CTCOR>
*
*       <CSLOPE>1.000000e+00</CSLOPE>
*
*    </Calibration>
*
*    <Calibration format='STRAIN0' id='Main Pressure'>
*
*       <SerialNum>10586018</SerialNum>
*
*       <CalDate>07-Mar-18</CalDate>
*
*       <PA0>-4.081764e-02</PA0>
*
*       <PA1>4.851884e-04</PA1>
*
*       <PA2>-3.511682e-12</PA2>
*
*       <PTCA0>5.252134e+05</PTCA0>
*
*       <PTCA1>1.795324e+00</PTCA1>
*
*       <PTCA2>-2.843535e-01</PTCA2>
*
*       <PTCB0>2.516687e+01</PTCB0>
*
*       <PTCB1>3.750000e-04</PTCB1>
*
*       <PTCB2>0.000000e+00</PTCB2>
*
*       <PTEMPA0>-5.378069e+01</PTEMPA0>
*
*       <PTEMPA1>5.366207e+01</PTEMPA1>
*
*       <PTEMPA2>4.872143e-02</PTEMPA2>
*
*       <POFFSET>5.000000e-01</POFFSET>
*
*       <PRANGE>1.600000e+02</PRANGE>
*
*    </Calibration>
*
*    <Calibration format='VOLT0' id='Volt 0'>
*
*       <OFFSET>-4.920000e-02</OFFSET>
*
*       <SLOPE>1.248122e+00</SLOPE>
*
*    </Calibration>
*
*    <Calibration format='VOLT0' id='Volt 1'>
*
*       <OFFSET>-4.784000e-02</OFFSET>
*
*       <SLOPE>1.248871e+00</SLOPE>
*
*    </Calibration>
*
*    <Calibration format='VOLT0' id='Volt 2'>
*
*       <OFFSET>-4.864632e-02</OFFSET>
*
*       <SLOPE>1.248714e+00</SLOPE>
*
*    </Calibration>
*
*    <Calibration format='VOLT0' id='Volt 3'>
*
*       <OFFSET>-4.743790e-02</OFFSET>
*
*       <SLOPE>1.248571e+00</SLOPE>
*
*    </Calibration>
*
*    <Calibration format='VOLT0' id='Volt 4'>
*
*       <OFFSET>-4.671263e-02</OFFSET>
*
*       <SLOPE>1.248951e+00</SLOPE>
*
*    </Calibration>
*
*    <Calibration format='VOLT0' id='Volt 5'>
*
*       <OFFSET>-4.871053e-02</OFFSET>
*
*       <SLOPE>1.249136e+00</SLOPE>
*
*    </Calibration>
*
*    <Calibration format='FREQ0' id='external frequency channel'>
*
*       <EXTFREQSF>1.000014e+00</EXTFREQSF>
*
*    </Calibration>
*
* </CalibrationCoefficients>
* <EventCounters DeviceType='SBE19plus' SerialNumber='01907809'>
*
*    <EventSummary numEvents='0'/>
*
* </EventCounters></InstrumentState>
* <Headers>
*
* cast   4 09 Aug 2018 20:45:35 samples 3167 to 3578, avg = 1, stop = mag switch
*
# nquan = 17
# nvalues = 376                         
# units = specified
# name 0 = depFM: Depth [fresh water, m]
# name 1 = tv290C: Temperature [ITS-90, deg C]
# name 2 = sbeox0Mg/L: Oxygen, SBE 43 [mg/l]
# name 3 = sbeox0PS: Oxygen, SBE 43 [% saturation]
# name 4 = c0uS/cm: Conductivity [uS/cm]
# name 5 = specc: Specific Conductance [uS/cm]
# name 6 = ph: pH
# name 7 = orp: Oxidation Reduction Potential [mV]
# name 8 = flECO-AFL: Fluorescence, WET Labs ECO-AFL/FL [mg/m^3]
# name 9 = turbWETntu0: Turbidity, WET Labs ECO [NTU]
# name 10 = sal00: Salinity, Practical [PSU]
# name 11 = dz/dtM: Descent Rate [m/s]
# name 12 = prdM: Pressure, Strain Gauge [db]
# name 13 = prdE: Pressure, Strain Gauge [psi]
# name 14 = scan: Scan Count
# name 15 = par/sat/log: PAR/Logarithmic, Satlantic
# name 16 = flag:  0.000e+00
# span 0 =     -0.554,      2.620       
# span 1 =    20.3663,    35.3243       
# span 2 =    -0.1714,    10.7628       
# span 3 =     -2.010,    135.387       
# span 4 =   0.486183, 114.524428       
# span 5 =      0.607,    128.275       
# span 6 =      6.011,      8.466       
# span 7 = -1240.7455,   348.1233       
# span 8 =    -0.2224,     8.6211       
# span 9 =    -0.8823,     5.6571       
# span 10 =     0.0150,     0.0636      
# span 11 =     -0.029,      0.285      
# span 12 =     -0.543,      2.568      
# span 13 =     -0.788,      3.724      
# span 14 =          1,        376      
# span 15 = 1.2963e+01, 2.1417e+03      
# span 16 = 0.0000e+00, 0.0000e+00      
# interval = seconds: 0.25
# start_time = Aug 09 2018 20:45:35 [Instrument's time stamp, header]
# bad_flag = -9.990e-29
# <Sensors count="9" >
#   <sensor Channel="1" >
#     <!-- Count, Temperature -->
#     <TemperatureSensor SensorID="58" >
#       <SerialNumber>7809</SerialNumber>
#       <CalibrationDate>09-Mar-18</CalibrationDate>
#       <A0>1.21093245e-003</A0>
#       <A1>2.84356597e-004</A1>
#       <A2>-1.94507398e-006</A2>
#       <A3>2.12806664e-007</A3>
#       <Slope>1.00000000</Slope>
#       <Offset>0.0000</Offset>
#     </TemperatureSensor>
#   </sensor>
#   <sensor Channel="2" >
#     <!-- Frequency 0, Conductivity -->
#     <ConductivitySensor SensorID="3" >
#       <SerialNumber>7809</SerialNumber>
#       <CalibrationDate>09-Mar-18</CalibrationDate>
#       <UseG_J>1</UseG_J>
#       <!-- Cell const and series R are applicable only for wide range sensors. -->
#       <SeriesR>0.0000</SeriesR>
#       <CellConst>2000.0000</CellConst>
#       <ConductivityType>0</ConductivityType>
#       <Coefficients equation="0" >
#         <A>0.00000000e+000</A>
#         <B>0.00000000e+000</B>
#         <C>0.00000000e+000</C>
#         <D>0.00000000e+000</D>
#         <M>0.0</M>
#         <CPcor>-9.57000000e-008</CPcor>
#       </Coefficients>
#       <Coefficients equation="1" >
#         <G>-1.00672082e+000</G>
#         <H>1.26906489e-001</H>
#         <I>-1.40584351e-004</I>
#         <J>2.47837121e-005</J>
#         <CPcor>-9.57000000e-008</CPcor>
#         <CTcor>3.2500e-006</CTcor>
#         <!-- WBOTC not applicable unless ConductivityType = 1. -->
#         <WBOTC>0.00000000e+000</WBOTC>
#       </Coefficients>
#       <Slope>1.00000000</Slope>
#       <Offset>0.00000</Offset>
#     </ConductivitySensor>
#   </sensor>
#   <sensor Channel="3" >
#     <!-- Count, Pressure, Strain Gauge -->
#     <PressureSensor SensorID="46" >
#       <SerialNumber>7809</SerialNumber>
#       <CalibrationDate>07-Mar-18</CalibrationDate>
#       <PA0>-4.08176359e-002</PA0>
#       <PA1>4.85188419e-004</PA1>
#       <PA2>-3.51168169e-012</PA2>
#       <PTEMPA0>-5.37806900e+001</PTEMPA0>
#       <PTEMPA1>5.36620721e+001</PTEMPA1>
#       <PTEMPA2>4.87214332e-002</PTEMPA2>
#       <PTCA0>5.25213435e+005</PTCA0>
#       <PTCA1>1.79532409e+000</PTCA1>
#       <PTCA2>-2.84353509e-001</PTCA2>
#       <PTCB0>2.51668750e+001</PTCB0>
#       <PTCB1>3.75000000e-004</PTCB1>
#       <PTCB2>0.00000000e+000</PTCB2>
#       <Offset>0.000000</Offset>
#     </PressureSensor>
#   </sensor>
#   <sensor Channel="4" >
#     <!-- A/D voltage 0, pH -->
#     <pH_Sensor SensorID="43" >
#       <SerialNumber>0363</SerialNumber>
#       <CalibrationDate>16-Mar-18</CalibrationDate>
#       <Slope>4.6194</Slope>
#       <Offset>2.5947</Offset>
#     </pH_Sensor>
#   </sensor>
#   <sensor Channel="5" >
#     <!-- A/D voltage 1, Oxidation Reduction Potential -->
#     <OxidationReductionPotentialSensor SensorID="41" >
#       <SerialNumber>0363</SerialNumber>
#       <CalibrationDate>16-Mar-18</CalibrationDate>
#       <B>2.499480</B>
#       <M>-0.496195</M>
#       <Offset>0.0</Offset>
#     </OxidationReductionPotentialSensor>
#   </sensor>
#   <sensor Channel="6" >
#     <!-- A/D voltage 2, Oxygen, SBE 43 -->
#     <OxygenSensor SensorID="38" >
#       <SerialNumber>0434</SerialNumber>
#       <CalibrationDate>13-Mar-18</CalibrationDate>
#       <Use2007Equation>1</Use2007Equation>
#       <CalibrationCoefficients equation="0" >
#         <!-- Coefficients for Owens-Millard equation. -->
#         <Boc>0.0000</Boc>
#         <Soc>0.0000e+000</Soc>
#         <offset>0.0000</offset>
#         <Pcor>0.00e+000</Pcor>
#         <Tcor>0.0000</Tcor>
#         <Tau>0.0</Tau>
#       </CalibrationCoefficients>
#       <CalibrationCoefficients equation="1" >
#         <!-- Coefficients for Sea-Bird equation - SBE calibration in 2007 and later. -->
#         <Soc>4.5718e-001</Soc>
#         <offset>-0.6113</offset>
#         <A>-4.0649e-003</A>
#         <B> 2.0945e-004</B>
#         <C>-3.3182e-006</C>
#         <D0> 2.5826e+000</D0>
#         <D1> 1.92634e-004</D1>
#         <D2>-4.64803e-002</D2>
#         <E> 3.6000e-002</E>
#         <Tau20> 1.2200</Tau20>
#         <H1>-3.3000e-002</H1>
#         <H2> 5.0000e+003</H2>
#         <H3> 1.4500e+003</H3>
#       </CalibrationCoefficients>
#     </OxygenSensor>
#   </sensor>
#   <sensor Channel="7" >
#     <!-- A/D voltage 3, PAR/Logarithmic, Satlantic -->
#     <PARLog_SatlanticSensor SensorID="76" >
#       <SerialNumber>1122</SerialNumber>
#       <CalibrationDate>22-Jun-2017</CalibrationDate>
#       <a0>9.6090e-001</a0>
#       <a1>8.0780e-001</a1>
#       <Im>1.3589e+000</Im>
#       <Multiplier>1.0000e+000</Multiplier>
#     </PARLog_SatlanticSensor>
#   </sensor>
#   <sensor Channel="8" >
#     <!-- A/D voltage 4, Fluorometer, WET Labs ECO-AFL/FL -->
#     <FluoroWetlabECO_AFL_FL_Sensor SensorID="20" >
#       <SerialNumber>FLNTURT-2496</SerialNumber>
#       <CalibrationDate>25-Jan-2017</CalibrationDate>
#       <ScaleFactor>5.30000000e+001</ScaleFactor>
#       <!-- Dark output -->
#       <Vblank>0.0560</Vblank>
#     </FluoroWetlabECO_AFL_FL_Sensor>
#   </sensor>
#   <sensor Channel="9" >
#     <!-- A/D voltage 5, Turbidity Meter, WET Labs, ECO-NTU -->
#     <TurbidityMeter SensorID="67" >
#       <SerialNumber>FLNTURT-2496</SerialNumber>
#       <CalibrationDate>25-Jan-2017</CalibrationDate>
#       <ScaleFactor>176.000000</ScaleFactor>
#       <!-- Dark output -->
#       <DarkVoltage>0.072000</DarkVoltage>
#     </TurbidityMeter>
#   </sensor>
# </Sensors>
# datcnv_date = Aug 09 2018 20:35:19, 7.26.7.114 [datcnv_vars = 16]
# datcnv_in = C:\DATA\080918_fcr20.hex C:\DATA\SBE19plusV2_7809.xmlcon
# datcnv_skipover = 0
# datcnv_ox_hysteresis_correction = yes
# datcnv_ox_tau_correction = yes
# filter_date = Aug 09 2018 20:35:37, 7.26.7.114
# filter_in = C:\DATA\080918_fcr20.cnv
# filter_low_pass_tc_A = 0.030
# filter_low_pass_tc_B = 0.150
# filter_low_pass_A_vars = tv290C c0uS/cm par/sat/log
# filter_low_pass_B_vars = prdM prdE
# alignctd_date = Aug 09 2018 20:35:55, 7.26.7.114
# alignctd_in = C:\DATA\080918_fcr20.cnv
# alignctd_adv = tv290C 0.500, sbeox0Mg/L 3.000, sbeox0PS 3.000                                                                                                                                                                      
# file_type = ascii
*END*
     -0.553    35.3217     7.3476    105.983   0.822550      0.677      6.208 -1240.7455    -0.2143    -0.1974     0.0151 -2.105e-16     -0.542     -0.787          1 9.0844e+01 0.0000e+00
     -0.554    35.3220     7.3542    106.044   0.865542      0.723      6.212 -1240.7455    -0.1819    -0.2646     0.0151     -0.000     -0.543     -0.787          2 4.1124e+02 0.0000e+00
     -0.553    35.3210     7.3575    106.073   0.788712      0.653      6.199 -1240.7455    -0.1981    -0.1974     0.0151     -0.000     -0.543     -0.787          3 1.6856e+03 0.0000e+00
     -0.554    35.3199     7.3644    106.135   0.740530      0.607      6.113 -1240.7455    -0.1941    -0.1706     0.0151     -0.000     -0.543     -0.788          4 2.1417e+03 0.0000e+00
     -0.554    35.3198     7.3700    106.155   0.777476      0.653      6.189 -1240.7455    -0.1900    -0.1169     0.0151     -0.000     -0.543     -0.788          5 1.7195e+03 0.0000e+00
     -0.553    35.3212     7.3750    106.180   0.742734      0.607      6.184 -1240.7455    -0.2143    -0.0900     0.0151     -0.000     -0.543     -0.788          6 8.9259e+02 0.0000e+00
     -0.554    35.3243     7.3856    106.178   0.724556      0.607      6.125 -1240.7455    -0.1819    -0.1706     0.0151     -0.000     -0.543     -0.788          7 1.7818e+03 0.0000e+00
     -0.554    35.3127     7.5663    106.456   0.740887      0.607      6.092 -1240.7455    -0.1860    -0.2512     0.0151     -0.000     -0.543     -0.788          8 1.8078e+03 0.0000e+00
     -0.553    35.2554     7.7911    106.623   0.781621      0.653      6.122 -1240.7455    -0.2224    -0.2243     0.0151     -0.000     -0.542     -0.787          9 3.0592e+02 0.0000e+00
     -0.553    35.1891     7.9464    106.771   0.792286      0.654      6.144 -1240.7455    -0.1819    -0.1974     0.0151      0.000     -0.542     -0.787         10 1.8723e+02 0.0000e+00
     -0.553    35.1431     8.0989    107.052   0.727614      0.608      6.162 -1240.7455    -0.1860    -0.1840     0.0151      0.000     -0.543     -0.787         11 2.0593e+02 0.0000e+00
     -0.554    35.1291     8.2344    107.476   0.802892      0.655      6.175 -1240.7455    -0.1941    -0.1840     0.0150      0.000     -0.543     -0.788         12 1.8956e+02 0.0000e+00
     -0.554    35.1087     8.3473    108.032   0.698605      0.609      6.181 -1240.7455    -0.1941    -0.3049     0.0150      0.000     -0.543     -0.788         13 1.9854e+02 0.0000e+00
     -0.553    35.1021     8.4559    108.834   0.827794      0.632      6.030 -1240.7455    -0.2062    -0.3989     0.0150      0.000     -0.542     -0.787         14 2.0843e+02 0.0000e+00
     -0.553    35.0427     8.5565    109.739   0.671725      0.656      6.011 -1240.7455    -0.2143    -0.3720     0.0150      0.000     -0.542     -0.787         15 1.3920e+02 0.0000e+00
     -0.553    35.0557     8.6350    110.496   0.922436      0.610      6.108 -1240.7455    -0.2062    -0.2377     0.0150      0.000     -0.542     -0.787         16 2.5724e+02 0.0000e+00
     -0.554    34.8956     8.7163    111.359   0.486183      0.656      6.150 -1240.7455    -0.2062    -0.7883     0.0150     -0.000     -0.541     -0.785         17 5.1693e+02 0.0000e+00
     -0.553    33.6352     8.7370    111.567   1.273844      0.657      6.186 -1240.7455    -0.1941    -0.7614     0.0150      0.000     -0.524     -0.760         18 9.5116e+02 0.0000e+00
     -0.494    31.9956     8.7512    111.722  14.216820     11.831      6.322 -1240.7455    -0.1941    -0.8017     0.0174      0.016     -0.473     -0.686         19 1.9281e+03 0.0000e+00
     -0.403    30.8863     8.7632    111.764  31.867386     27.408      6.696   348.1233    -0.1981    -0.8823     0.0227      0.051     -0.393     -0.571         20 2.0432e+03 0.0000e+00
     -0.308    29.9527     8.7546    111.523  38.904985     34.213      7.287   299.9689     1.3263     5.5631     0.0250      0.102     -0.308     -0.448         21 1.9456e+03 0.0000e+00
     -0.235    29.2136     8.7422    111.255  38.959821     34.800      7.650   274.9831     1.3506     5.6303     0.0250      0.155     -0.236     -0.343         22 1.8577e+03 0.0000e+00
     -0.183    28.7339     8.6988    110.622  38.798760     35.328      7.816   261.5817     1.3263     5.6571     0.0250      0.201     -0.174     -0.252         23 1.9172e+03 0.0000e+00
     -0.110    28.4146     8.3724    106.436  38.809302     35.777      7.889   251.1709     1.3668     5.4960     0.0250      0.242     -0.107     -0.155         24 1.6684e+03 0.0000e+00
     -0.034    28.2161     8.2713    105.182  38.739457     36.048      7.930   246.1738     2.7012     2.1524     0.0250      0.274     -0.042     -0.060         25 3.2522e+02 0.0000e+00
      0.016    28.0848     8.4125    107.053  38.796966     36.313      7.917   242.7666     2.6931     2.1659     0.0250      0.285      0.008      0.011         26 2.3567e+01 0.0000e+00
      0.041    27.9978     8.5411    108.812  38.915883     36.555      7.879   238.7537     2.7174     2.0853     0.0251      0.266      0.037      0.052         27 1.6231e+02 0.0000e+00
      0.054    27.9671     8.5637    109.206  39.036513     36.775      7.845   227.5480     2.7133     2.1390     0.0252      0.231      0.054      0.077         28 7.5499e+01 0.0000e+00
      0.070    27.9526     8.5471    109.088  39.002864     36.784      7.825   225.5794     2.6931     2.1927     0.0251      0.193      0.067      0.097         29 1.0488e+02 0.0000e+00
      0.081    27.8980     8.4769    108.276  39.046791     36.857      7.779   242.9180     3.6595     2.4344     0.0252      0.159      0.076      0.111         30 6.3110e+01 0.0000e+00
      0.081    27.8308     8.3591    106.830  39.041193     36.866      7.741   239.7759     3.6757     2.3270     0.0252      0.123      0.079      0.115         31 8.4719e+01 0.0000e+00
      0.081    27.7760     8.3184    106.359  38.920858     36.773      7.737   239.0187     3.6838     2.3673     0.0251      0.083      0.078      0.114         32 7.4099e+01 0.0000e+00
      0.079    27.7342     8.2551    105.568  38.899947     36.820      7.743   239.2459     3.6797     2.3941     0.0251      0.049      0.077      0.112         33 8.1653e+01 0.0000e+00
      0.078    27.7170     8.1128    103.754  38.829949     36.779      7.763   238.1859     3.8658     2.1390     0.0251      0.028      0.076      0.110         34 7.5277e+01 0.0000e+00
      0.076    27.7319     7.9781    102.046  38.741039     36.728      7.782   235.3466     3.8819     2.1390     0.0250      0.015      0.075      0.109         35 7.9882e+01 0.0000e+00
      0.077    27.7734     7.8637    100.587  38.684333     36.688      7.800   232.6966     3.8536     2.1256     0.0250      0.006      0.075      0.109         36 8.1016e+01 0.0000e+00
      0.077    27.8342     7.7429     99.043  38.633570     36.624      7.817   231.5609     3.8779     2.2196     0.0250     -0.000      0.074      0.108         37 8.1885e+01 0.0000e+00
      0.075    27.8904     7.6741     98.190  38.863530     36.808      7.832   231.7123     3.5180     2.1927     0.0251     -0.003      0.073      0.106         38 8.1316e+01 0.0000e+00
      0.073    27.9388     7.6039     97.311  39.465978     37.346      7.852   220.8094     3.5463     2.1390     0.0253     -0.004      0.072      0.104         39 8.2868e+01 0.0000e+00
      0.073    27.9816     7.5028     96.010  40.049196     37.862      7.871   220.3551     3.5099     2.0853     0.0255     -0.003      0.071      0.103         40 8.1700e+01 0.0000e+00
      0.072    28.0138     7.3949     94.617  40.540440     38.276      7.891   220.7337     3.5261     2.0853     0.0257     -0.003      0.070      0.102         41 8.0708e+01 0.0000e+00
      0.070    28.0393     7.3014     93.404  40.931104     38.640      7.900   221.2258     3.4695     1.9645     0.0259     -0.004      0.069      0.101         42 8.1421e+01 0.0000e+00
      0.070    28.0495     7.2091     92.201  40.957242     38.617      7.909   220.1658     3.5180     2.0584     0.0259     -0.004      0.070      0.102         43 8.0290e+01 0.0000e+00
      0.075    28.0528     7.0820     90.559  40.863872     38.519      7.928   221.6801     3.4937     2.0182     0.0258     -0.003      0.074      0.108         44 7.7434e+01 0.0000e+00
      0.083    28.0611     6.9926     89.426  40.898962     38.538      7.948   227.6994     3.4978     1.9779     0.0259      0.001      0.080      0.117         45 7.7718e+01 0.0000e+00
      0.088    28.0635     7.0009     89.562  40.943233     38.589      7.972   227.8508     3.2713     2.1122     0.0259      0.006      0.085      0.123         46 7.6079e+01 0.0000e+00
      0.088    28.0650     7.1002     90.865  40.897770     38.530      7.988   225.2766     3.2916     2.1927     0.0259      0.009      0.086      0.124         47 7.5117e+01 0.0000e+00
      0.086    28.0794     7.2443     92.733  40.836876     38.476      8.007   223.9894     3.2916     2.1927     0.0258      0.010      0.085      0.123         48 7.6803e+01 0.0000e+00
      0.086    28.0904     7.3930     94.660  40.781691     38.422      8.024   222.5508     3.2996     2.1659     0.0258      0.010      0.085      0.123         49 7.4819e+01 0.0000e+00
      0.086    28.0869     7.5641     96.876  40.580797     38.227      8.036   222.5130     3.2673     2.1793     0.0257      0.009      0.086      0.124         50 7.4320e+01 0.0000e+00
      0.089    28.0791     7.7457     99.223  40.345258     37.982      8.047   223.0051     3.3563     2.1927     0.0256      0.007      0.087      0.126         51 7.4127e+01 0.0000e+00
      0.090    28.0698     7.9105    101.351  40.273865     37.932      8.055   222.6265     3.3522     2.1256     0.0256      0.005      0.088      0.127         52 7.1966e+01 0.0000e+00
      0.090    28.0559     8.0297    102.889  40.284007     37.938      8.063   223.3837     3.3886     2.0719     0.0256      0.002      0.088      0.127         53 7.1798e+01 0.0000e+00
      0.089    28.0458     8.0976    103.770  40.273313     37.944      8.067   222.9294     3.3684     2.1659     0.0256      0.001      0.087      0.125         54 7.2440e+01 0.0000e+00
      0.086    28.0517     8.1116    103.956  40.227851     37.901      8.060   222.6644     3.0651     1.9645     0.0256      0.001      0.085      0.123         55 7.2015e+01 0.0000e+00
      0.085    28.0705     8.1031    103.859  40.162604     37.857      8.064   222.1723     3.0772     2.0584     0.0256     -0.000      0.084      0.122         56 7.1779e+01 0.0000e+00
      0.086    28.0906     8.0811    103.581  40.117201     37.799      8.075   222.0587     3.1015     1.9645     0.0256     -0.001      0.084      0.122         57 7.2303e+01 0.0000e+00
      0.085    28.1051     8.0479    103.137  40.106367     37.786      8.089   221.7558     3.0853     2.0316     0.0256     -0.002      0.084      0.122         58 7.2913e+01 0.0000e+00
      0.085    28.1194     8.0273    102.829  40.057423     37.719      8.101   220.8851     3.1379     2.1793     0.0255     -0.003      0.083      0.121         59 7.4634e+01 0.0000e+00
      0.084    28.1347     8.0113    102.572  40.029780     37.682      8.107   220.8094     3.1581     2.0450     0.0255     -0.003      0.082      0.119         60 7.4579e+01 0.0000e+00
      0.083    28.1467     7.9943    102.331  40.051766     37.698      8.116   220.7337     3.1500     2.2196     0.0255     -0.003      0.081      0.118         61 7.3839e+01 0.0000e+00
      0.081    28.1560     7.9742    102.068  40.059716     37.687      8.122   220.7337     3.1864     2.1390     0.0255     -0.003      0.081      0.117         62 7.3636e+01 0.0000e+00
      0.082    28.1624     7.9327    101.542  40.049542     37.679      8.133   220.2415     3.2107     2.0987     0.0255     -0.002      0.081      0.117         63 7.4077e+01 0.0000e+00
      0.083    28.1673     7.8578    100.602  40.005095     37.620      8.137   220.2794     3.2349     2.1390     0.0255     -0.002      0.081      0.118         64 7.4284e+01 0.0000e+00
      0.083    28.1718     7.7913     99.760  40.026034     37.642      8.141   219.8630     3.1986     2.1122     0.0255     -0.002      0.081      0.118         65 7.2569e+01 0.0000e+00
      0.082    28.1780     7.7451     99.176  40.053145     37.664      8.148   219.0301     3.2309     2.0450     0.0255     -0.001      0.081      0.117         66 7.3108e+01 0.0000e+00
      0.082    28.1803     7.7274     98.959  40.001017     37.609      8.152   217.9322     3.1905     2.2196     0.0255     -0.001      0.081      0.117         67 7.3639e+01 0.0000e+00
      0.082    28.1699     7.6814     98.384  40.001911     37.604      8.156   218.0080     3.1379     2.1122     0.0255     -0.000      0.080      0.116         68 7.2561e+01 0.0000e+00
      0.081    28.1450     7.6071     97.435  39.992700     37.603      8.161   218.1215     3.1500     2.1659     0.0255     -0.000      0.080      0.116         69 7.2751e+01 0.0000e+00
      0.081    28.1172     7.5255     96.384  39.953151     37.557      8.164   217.4022     3.1379     2.1390     0.0255     -0.000      0.080      0.116         70 7.2983e+01 0.0000e+00
      0.082    28.1040     7.4475     95.375  39.962145     37.601      8.166   216.4180     3.1581     2.1659     0.0255     -0.001      0.081      0.118         71 7.2260e+01 0.0000e+00
      0.086    28.1008     7.3944     94.694  39.862865     37.516      8.172   214.9415     3.1581     2.1659     0.0255      0.000      0.084      0.122         72 7.0966e+01 0.0000e+00
      0.089    28.1044     7.3631     94.310  39.869068     37.525      8.175   214.5630     3.1662     2.1927     0.0255      0.002      0.085      0.124         73 6.9975e+01 0.0000e+00
      0.088    28.1141     7.3399     94.029  39.924769     37.606      8.171   214.8658     3.1460     2.2196     0.0255      0.003      0.085      0.123         74 7.0468e+01 0.0000e+00
      0.083    28.1198     7.3210     93.799  39.882541     37.525      8.170   214.9037     3.1541     2.1390     0.0255      0.003      0.082      0.119         75 7.1649e+01 0.0000e+00
      0.080    28.1241     7.3108     93.676  39.832627     37.518      8.169   214.6008     3.1864     2.0719     0.0255      0.001      0.079      0.115         76 7.2766e+01 0.0000e+00
      0.080    28.1302     7.2937     93.464  39.719908     37.356      8.175   214.4115     3.1702     2.0719     0.0254     -0.000      0.079      0.115         77 7.0262e+01 0.0000e+00
      0.082    28.1371     7.2642     93.101  39.726177     37.405      8.176   214.7144     3.1905     1.9376     0.0254     -0.001      0.080      0.117         78 6.7067e+01 0.0000e+00
      0.083    28.1391     7.2238     92.602  39.765496     37.402      8.180   214.4872     3.1379     1.9779     0.0254     -0.002      0.082      0.119         79 6.9140e+01 0.0000e+00
      0.085    28.1354     7.1731     91.957  39.789630     37.449      8.185   213.4272     3.2430     2.1390     0.0254     -0.002      0.084      0.122         80 6.8213e+01 0.0000e+00
      0.089    28.1298     7.1349     91.494  39.814795     37.448      8.188   211.9508     3.2228     2.1390     0.0254     -0.000      0.087      0.126         81 6.2817e+01 0.0000e+00
      0.093    28.1297     7.0938     91.049  39.852831     37.503      8.191   211.0801     3.2309     2.1927     0.0255      0.003      0.091      0.131         82 6.1023e+01 0.0000e+00
      0.096    28.1392     7.0481     90.504  39.801624     37.454      8.194   211.4965     3.2390     2.1122     0.0254      0.007      0.094      0.136         83 6.0876e+01 0.0000e+00
      0.098    28.1491     6.9757     89.549  39.759869     37.402      8.197   211.7994     3.4169     2.1927     0.0254      0.010      0.096      0.139         84 5.9908e+01 0.0000e+00
      0.098    28.1558     6.9039     88.622  39.845465     37.500      8.196   211.7237     3.4371     2.1122     0.0255      0.010      0.096      0.140         85 6.0395e+01 0.0000e+00
      0.098    28.1610     6.8273     87.658  39.813751     37.441      8.193   211.3829     3.4169     2.1390     0.0254      0.009      0.095      0.139         86 6.0536e+01 0.0000e+00
      0.096    28.1658     6.7698     86.917  39.799332     37.436      8.192   211.7237     3.4371     2.1524     0.0254      0.007      0.094      0.136         87 5.9441e+01 0.0000e+00
      0.093    28.1744     6.7374     86.485  39.804078     37.432      8.193   212.2915     3.3684     2.1390     0.0254      0.004      0.091      0.132         88 6.1081e+01 0.0000e+00
      0.089    28.1854     6.7147     86.209  39.807842     37.429      8.198   212.2158     3.3401     2.0987     0.0254      0.000      0.088      0.128         89 6.1676e+01 0.0000e+00
      0.088    28.1890     6.6723     85.808  39.853972     37.476      8.203   211.6479     3.3482     2.1256     0.0255     -0.003      0.088      0.128         90 5.9946e+01 0.0000e+00
      0.094    28.2075     6.6354     85.386  39.865320     37.468      8.204   209.7551     3.3482     2.1524     0.0255     -0.004      0.093      0.135         91 5.8547e+01 0.0000e+00
      0.104    28.2562     6.6156     85.073  39.853041     37.465      8.206   210.1337     3.3765     2.0450     0.0255     -0.001      0.099      0.145         92 5.7507e+01 0.0000e+00
      0.106    28.2824     6.6006     84.936  39.869248     37.453      8.193   210.4744     3.3603     2.0450     0.0255      0.003      0.101      0.147         93 5.8819e+01 0.0000e+00
      0.100    28.2674     6.5995     85.054  39.993459     37.548      8.166   210.7394     3.3441     2.0316     0.0255      0.004      0.097      0.141         94 6.0210e+01 0.0000e+00
      0.090    28.2642     6.5868     84.981  40.054409     37.582      8.163   210.3987     3.3522     1.9645     0.0255      0.003      0.090      0.131         95 6.0009e+01 0.0000e+00
      0.085    28.2747     6.5705     84.817  40.060359     37.594      8.173   202.8651     3.3643     2.0584     0.0255      0.000      0.087      0.127         96 5.9999e+01 0.0000e+00
      0.092    28.2753     6.5473     84.558  39.956391     37.518      8.190   201.0858     3.4250     2.1927     0.0255     -0.001      0.092      0.134         97 5.7006e+01 0.0000e+00
      0.106    28.2615     6.5244     84.305  39.827832     37.351      8.205   199.8743     3.4088     2.1122     0.0254      0.001      0.104      0.150         98 5.4843e+01 0.0000e+00
      0.118    28.2775     6.4984     84.003  39.834717     37.405      8.218   199.3822     3.4331     2.1659     0.0255      0.004      0.114      0.165         99 5.8945e+01 0.0000e+00
      0.125    28.3656     6.4609     83.545  39.829166     37.360      8.213   199.3822     3.4169     2.2464     0.0254      0.009      0.117      0.170        100 6.7673e+01 0.0000e+00
      0.114    28.4011     6.4061     82.848  39.983060     37.537      8.189   198.2843     3.3684     2.1390     0.0255      0.012      0.110      0.160        101 7.5612e+01 0.0000e+00
      0.099    28.3671     6.3542     82.181  40.058479     37.523      8.197   196.8458     3.3724     2.2062     0.0255      0.011      0.097      0.141        102 8.0762e+01 0.0000e+00
      0.084    28.4020     6.2985     81.458  40.061579     37.498      8.225   197.2622     3.3886     2.1122     0.0255      0.005      0.083      0.121        103 9.1387e+01 0.0000e+00
      0.072    28.4891     6.2477     80.780  40.157168     37.630      8.250   197.6408     3.3441     2.1524     0.0256     -0.006      0.073      0.107        104 9.6091e+01 0.0000e+00
      0.069    28.5509     6.2001     80.146  40.176832     37.604      8.271   197.8300     3.3441     2.2464     0.0256     -0.019      0.070      0.102        105 9.7938e+01 0.0000e+00
      0.072    28.5824     6.1483     79.468  40.155747     37.542      8.281   197.4893     3.3522     2.1390     0.0256     -0.027      0.071      0.103        106 1.0309e+02 0.0000e+00
      0.076    28.6097     6.0992     78.849  40.183371     37.499      8.287   197.4893     3.3441     2.0047     0.0256     -0.029      0.074      0.107        107 9.9749e+01 0.0000e+00
      0.077    28.6387     6.0565     78.319  40.261077     37.581      8.296   197.1486     3.3522     2.0987     0.0256     -0.024      0.076      0.110        108 9.5701e+01 0.0000e+00
      0.079    28.6619     6.0174     77.831  40.237007     37.510      8.297   197.0350     3.4210     2.1390     0.0256     -0.015      0.076      0.111        109 9.3998e+01 0.0000e+00
      0.078    28.6798     5.9784     77.345  40.272637     37.542      8.302   196.6186     3.4129     2.1390     0.0256     -0.006      0.076      0.111        110 9.2168e+01 0.0000e+00
      0.077    28.6879     5.9368     76.826  40.276049     37.526      8.312   196.5429     3.4169     2.0853     0.0256      0.001      0.076      0.111        111 8.9421e+01 0.0000e+00
      0.079    28.6910     5.9057     76.442  40.232749     37.461      8.314   197.1865     3.4290     2.0584     0.0256      0.004      0.076      0.111        112 8.9109e+01 0.0000e+00
      0.077    28.6883     5.8726     76.012  40.326514     37.559      8.318   197.1865     3.2916     2.0182     0.0256      0.004      0.076      0.111        113 8.9166e+01 0.0000e+00
      0.076    28.6743     5.8431     75.610  40.278013     37.505      8.321   196.9972     3.2916     2.0853     0.0256      0.001      0.077      0.111        114 8.4913e+01 0.0000e+00
      0.080    28.6607     5.8170     75.266  40.233779     37.455      8.318   197.0729     3.2956     2.1659     0.0256      0.001      0.078      0.113        115 8.1972e+01 0.0000e+00
      0.082    28.6556     5.7883     74.892  40.262907     37.517      8.319   196.9593     3.3037     2.1256     0.0256      0.001      0.080      0.116        116 8.0221e+01 0.0000e+00
      0.083    28.6653     5.7666     74.588  40.241768     37.474      8.323   197.3379     3.2875     2.1659     0.0256      0.002      0.080      0.116        117 7.8719e+01 0.0000e+00
      0.079    28.6816     5.7450     74.264  40.319420     37.583      8.317   197.3758     3.3360     2.0316     0.0256      0.002      0.076      0.111        118 8.1070e+01 0.0000e+00
      0.070    28.6950     5.7343     74.069  40.344258     37.575      8.313   196.9593     3.3441     1.8973     0.0256     -0.001      0.070      0.101        119 8.2257e+01 0.0000e+00
      0.065    28.7085     5.7278     73.909  40.329510     37.564      8.315   197.0350     3.3563     1.9913     0.0256     -0.004      0.064      0.092        120 8.1218e+01 0.0000e+00
      0.059    28.7233     5.7299     73.874  40.337766     37.554      8.313   196.9215     3.3563     2.0450     0.0256     -0.008      0.057      0.083        121 7.6854e+01 0.0000e+00
      0.050    28.7365     5.7289     73.828  40.333976     37.545      8.315   197.1865     3.3724     1.9107     0.0256     -0.014      0.050      0.073        122 7.1483e+01 0.0000e+00
      0.044    28.7347     5.7245     73.766  40.334221     37.535      8.318   197.0350     3.3765     1.9645     0.0256     -0.020      0.045      0.065        123 7.1360e+01 0.0000e+00
      0.044    28.7209     5.7177     73.680  40.278127     37.473      8.318   196.9215     3.3441     1.9107     0.0256     -0.022      0.045      0.064        124 6.8012e+01 0.0000e+00
      0.046    28.7153     5.7283     73.880  40.225793     37.422      8.321   198.2843     3.3886     1.9913     0.0256     -0.021      0.046      0.066        125 6.2795e+01 0.0000e+00
      0.048    28.7135     5.7204     73.868  40.221364     37.433      8.320   198.3222     3.2430     2.1927     0.0256     -0.017      0.047      0.068        126 6.0948e+01 0.0000e+00
      0.050    28.6953     5.7183     73.852  40.164985     37.384      8.318   198.0950     3.2228     2.0719     0.0255     -0.011      0.049      0.071        127 6.3226e+01 0.0000e+00
      0.053    28.6619     5.7220     73.848  40.177301     37.385      8.319   198.2086     3.2066     2.1390     0.0255     -0.005      0.052      0.075        128 6.1471e+01 0.0000e+00
      0.055    28.6168     5.7147     73.675  40.206040     37.450      8.320   197.4136     3.2147     2.0182     0.0256      0.001      0.055      0.080        129 5.7977e+01 0.0000e+00
      0.059    28.5605     5.7039     73.457  40.129231     37.369      8.321   197.2243     3.2633     2.1122     0.0255      0.006      0.059      0.085        130 5.8323e+01 0.0000e+00
      0.066    28.5110     5.6890     73.203  40.094921     37.400      8.322   197.4893     3.2835     2.1524     0.0255      0.010      0.065      0.094        131 5.6819e+01 0.0000e+00
      0.074    28.4866     5.6664     72.868  40.070778     37.388      8.320   197.2243     3.2916     2.0719     0.0255      0.013      0.071      0.103        132 5.4199e+01 0.0000e+00
      0.079    28.4809     5.6392     72.487  40.099979     37.475      8.322   207.9758     3.2996     2.1927     0.0255      0.016      0.074      0.108        133 5.1686e+01 0.0000e+00
      0.076    28.4845     5.6095     72.076  40.177263     37.545      8.306   198.8901     3.6555     2.1122     0.0256      0.016      0.069      0.100        134 4.9453e+01 0.0000e+00
      0.054    28.5330     5.5766     71.625  40.152598     37.547      8.304   197.8300     3.6919     2.1390     0.0256      0.010      0.057      0.082        135 4.7114e+01 0.0000e+00
      0.044    28.5997     5.5453     71.200  40.130679     37.494      8.298   197.9436     3.6838     2.1524     0.0255      0.001      0.047      0.068        136 4.5168e+01 0.0000e+00
      0.046    28.6095     5.5156     70.798  40.145207     37.512      8.292   197.7543     3.6676     2.2062     0.0256     -0.007      0.044      0.063        137 4.6953e+01 0.0000e+00
      0.041    28.5698     5.4857     70.393  40.075165     37.359      8.289   197.9815     3.6676     2.1122     0.0255     -0.014      0.042      0.060        138 4.9269e+01 0.0000e+00
      0.041    28.5093     5.4575     70.010  40.099160     37.406      8.292   196.9972     4.1165     1.9242     0.0255     -0.019      0.041      0.059        139 4.8256e+01 0.0000e+00
      0.041    28.4483     5.4353     69.720  40.056013     37.381      8.296   197.5272     4.1165     2.0047     0.0255     -0.021      0.042      0.060        140 4.6751e+01 0.0000e+00
      0.044    28.4009     5.4110     69.420  39.950898     37.319      8.299   196.9215     4.1367     2.0719     0.0255     -0.018      0.043      0.061        141 4.4483e+01 0.0000e+00
      0.044    28.3663     5.3882     69.151  39.933366     37.362      8.306   196.9215     4.1326     1.9510     0.0255     -0.011      0.043      0.062        142 4.5879e+01 0.0000e+00
      0.043    28.3408     5.3803     69.049  39.959207     37.395      8.312   195.9750     4.2054     2.1256     0.0255     -0.003      0.042      0.061        143 4.6374e+01 0.0000e+00
      0.041    28.3182     5.4066     69.363  40.007757     37.498      8.314   195.9750     4.1731     2.1524     0.0255     -0.001      0.041      0.059        144 4.6319e+01 0.0000e+00
      0.040    28.2959     5.4890     70.483  39.961956     37.437      8.322   196.1265     4.1973     2.1927     0.0255     -0.001      0.040      0.058        145 4.7382e+01 0.0000e+00
      0.041    28.2773     5.6048     71.994  39.986554     37.505      8.325   196.0129     4.2054     2.1524     0.0255     -0.000      0.040      0.058        146 4.5371e+01 0.0000e+00
      0.040    28.2609     5.7057     73.249  40.006823     37.521      8.332   195.4450     4.1529     2.0987     0.0255     -0.001      0.040      0.057        147 4.5720e+01 0.0000e+00
      0.040    28.2436     5.7984     74.383  39.996073     37.534      8.337   195.8236     4.1165     2.1524     0.0255     -0.002      0.040      0.057        148 4.4890e+01 0.0000e+00
      0.040    28.2267     5.8907     75.610  39.999942     37.546      8.346   195.4072     4.1448     2.1793     0.0255     -0.002      0.040      0.057        149 4.3899e+01 0.0000e+00
      0.041    28.2226     5.9747     76.763  39.972353     37.532      8.349   195.2936     4.1367     2.2062     0.0255     -0.001      0.040      0.057        150 4.3612e+01 0.0000e+00
      0.040    28.2318     6.0363     77.572  39.941424     37.517      8.353   195.4450     3.9830     2.2196     0.0255     -0.001      0.037      0.053        151 4.6499e+01 0.0000e+00
      0.029    28.2527     6.0612     77.888  40.008775     37.573      8.361   194.6122     3.9749     2.0987     0.0255     -0.003      0.030      0.043        152 5.4860e+01 0.0000e+00
      0.021    28.2481     6.0572     77.830  40.036858     37.618      8.367   204.7201     4.0113     2.1256     0.0255     -0.007      0.025      0.036        153 5.5260e+01 0.0000e+00
      0.027    28.2370     6.0419     77.625  39.876807     37.421      8.372   195.5586     4.0235     2.2464     0.0255     -0.009      0.031      0.045        154 5.0683e+01 0.0000e+00
      0.046    28.2788     6.0135     77.259  39.674003     37.264      8.380   195.3693     3.7768     2.1927     0.0254     -0.004      0.045      0.065        155 4.7354e+01 0.0000e+00
      0.063    28.3024     5.9798     76.835  39.606983     37.172      8.385   195.5965     3.8051     2.1122     0.0253      0.004      0.057      0.081        156 4.5454e+01 0.0000e+00
      0.062    28.2674     5.9342     76.265  39.722903     37.294      8.383   205.0229     3.8132     2.0719     0.0254      0.011      0.058      0.084        157 4.7153e+01 0.0000e+00
      0.052    28.2302     5.8752     75.522  39.826362     37.334      8.381   195.7858     3.7889     2.1659     0.0254      0.013      0.051      0.075        158 4.7638e+01 0.0000e+00
      0.044    28.2584     5.8164     74.780  39.923174     37.487      8.394   195.5208     3.8051     2.1390     0.0255      0.013      0.045      0.066        159 4.3827e+01 0.0000e+00
      0.042    28.3130     5.7577     74.040  39.869408     37.438      8.408   195.4072     4.4642     2.1659     0.0255      0.012      0.044      0.063        160 4.1005e+01 0.0000e+00
      0.047    28.3273     5.7044     73.370  39.804294     37.364      8.417   195.2179     4.4561     2.1122     0.0254      0.009      0.048      0.068        161 4.0559e+01 0.0000e+00
      0.055    28.3242     5.6513     72.703  39.796552     37.325      8.425   194.8393     4.4278     2.0719     0.0254      0.004      0.053      0.076        162 3.7202e+01 0.0000e+00
      0.057    28.3188     5.6041     72.112  39.760368     37.263      8.432   195.0665     4.4561     2.1122     0.0254     -0.001      0.055      0.079        163 3.8143e+01 0.0000e+00
      0.055    28.3131     5.5499     71.430  39.789985     37.318      8.437   194.9529     4.5330     2.1927     0.0254     -0.003      0.054      0.077        164 4.0417e+01 0.0000e+00
      0.052    28.3125     5.5027     70.833  39.819020     37.321      8.441   205.0608     4.5127     2.1256     0.0254      0.000      0.052      0.074        165 3.9964e+01 0.0000e+00
      0.050    28.3195     5.4663     70.376  39.902219     37.430      8.444   205.0608     4.5087     2.1122     0.0255      0.003      0.050      0.073        166 4.3114e+01 0.0000e+00
      0.050    28.3309     5.4298     69.919  39.864431     37.378      8.446   204.8715     4.5249     2.1122     0.0254      0.004      0.050      0.073        167 4.4157e+01 0.0000e+00
      0.052    28.3422     5.3926     69.455  39.866047     37.374      8.445   196.9972     4.5168     2.1927     0.0254      0.002      0.051      0.074        168 4.2857e+01 0.0000e+00
      0.054    28.3529     5.3552     68.988  39.929868     37.444      8.445   205.0229     4.5127     2.2196     0.0255      0.000      0.053      0.076        169 4.2157e+01 0.0000e+00
      0.054    28.3640     5.3275     68.635  39.873993     37.357      8.447   205.0608     4.5208     2.0719     0.0254     -0.001      0.053      0.077        170 4.1169e+01 0.0000e+00
      0.053    28.3761     5.4264     69.628  39.905913     37.402      8.446   205.1365     4.5451     2.1390     0.0255     -0.001      0.052      0.076        171 4.1072e+01 0.0000e+00
      0.052    28.3890     5.9347     75.515  39.949465     37.421      8.448   205.2122     4.5208     2.0853     0.0255      0.000      0.051      0.074        172 4.0887e+01 0.0000e+00
      0.052    28.4018     6.8862     87.113  39.938441     37.412      8.449   205.0986     4.5006     2.2733     0.0255      0.001      0.051      0.074        173 4.0290e+01 0.0000e+00
      0.053    28.4126     7.9379    100.092  39.949289     37.403      8.453   204.7201     4.5249     2.2464     0.0255      0.001      0.052      0.075        174 3.9824e+01 0.0000e+00
      0.055    28.4221     8.9342    112.460  39.935958     37.394      8.455   204.9094     4.5249     2.1390     0.0255      0.001      0.053      0.077        175 4.1485e+01 0.0000e+00
      0.055    28.4311     9.7106    122.137  39.925361     37.360      8.456   204.8336     4.4885     2.1524     0.0255      0.000      0.053      0.078        176 4.2700e+01 0.0000e+00
      0.055    28.4424    10.2791    129.244  39.932807     37.380      8.457   204.7201     4.5006     2.1793     0.0255      0.000      0.053      0.077        177 4.2054e+01 0.0000e+00
      0.053    28.4525    10.6419    133.822  40.015677     37.426      8.459   204.7579     4.5330     2.2062     0.0255      0.001      0.052      0.076        178 4.2811e+01 0.0000e+00
      0.052    28.4675    10.7628    135.387  39.911217     37.366      8.456   205.0229     4.5006     2.1122     0.0255      0.001      0.051      0.075        179 4.2351e+01 0.0000e+00
      0.051    28.4670    10.6950    134.581  40.003472     37.358      8.456   204.6444     4.5168     2.0987     0.0255     -0.000      0.051      0.074        180 4.1591e+01 0.0000e+00
      0.052    28.2313    10.4840    131.964  39.752542     37.271      8.455   204.5686     4.3793     2.0719     0.0254     -0.001      0.052      0.075        181 4.3548e+01 0.0000e+00
      0.054    27.7754    10.2708    129.281  38.473390     35.883      8.455   204.1522     4.3874     2.0450     0.0249     -0.001      0.052      0.076        182 4.6471e+01 0.0000e+00
      0.053    27.4386    10.0921    127.029  37.917238     35.644      8.457   204.0008     4.3510     2.1793     0.0247     -0.001      0.052      0.076        183 4.7536e+01 0.0000e+00
      0.054    27.2606     9.9462    125.236  37.923511     35.911      8.461   204.2279     4.3874     2.0719     0.0247     -0.000      0.053      0.076        184 4.7212e+01 0.0000e+00
      0.054    27.1605     9.8402    123.903  37.842897     36.082      8.464   204.3794     3.8253     2.1659     0.0247      0.000      0.053      0.076        185 4.5690e+01 0.0000e+00
      0.054    27.1173     9.7574    122.883  37.899088     36.261      8.462   204.2658     3.7970     2.0987     0.0247      0.001      0.053      0.076        186 4.2671e+01 0.0000e+00
      0.054    27.0984     9.6904    122.120  37.913007     36.329      8.464   204.5686     3.8213     2.1524     0.0247      0.001      0.053      0.076        187 4.4441e+01 0.0000e+00
      0.054    27.1049     9.6352    121.572  37.944274     36.413      8.466   205.1365     3.8011     2.0584     0.0248      0.001      0.053      0.077        188 4.7848e+01 0.0000e+00
      0.055    27.1234     9.5940    121.126  37.919525     36.372      8.464   204.7201     3.6272     2.1390     0.0248      0.001      0.053      0.078        189 4.8237e+01 0.0000e+00
      0.053    27.1429     9.5709    120.824  37.943816     36.421      8.461   205.6286     3.5706     2.1390     0.0248      0.000      0.052      0.076        190 4.7255e+01 0.0000e+00
      0.050    27.1589     9.5588    120.621  37.973365     36.408      8.461   205.9315     3.6029     2.0450     0.0248     -0.001      0.052      0.075        191 4.1205e+01 0.0000e+00
      0.053    27.1582     9.5536    120.455  38.001389     36.448      8.457   199.1551     3.6070     2.0853     0.0248     -0.001      0.057      0.083        192 4.2703e+01 0.0000e+00
      0.071    27.1597     9.5378    120.168  37.908931     36.330      8.452   199.5715     3.6757     2.1524     0.0247      0.004      0.074      0.107        193 4.7992e+01 0.0000e+00
      0.104    27.1754     9.5226    119.973  37.969775     36.383      8.439   205.7044     3.6676     2.1659     0.0248      0.016      0.096      0.140        194 4.6767e+01 0.0000e+00
      0.119    27.1798     9.4983    119.770  38.073973     36.518      8.412   205.5151     3.6838     2.1390     0.0248      0.029      0.109      0.158        195 4.8241e+01 0.0000e+00
      0.108    27.1876     9.4829    119.744  37.986884     36.370      8.398   198.9658     3.6757     2.0719     0.0248      0.034      0.106      0.153        196 4.9014e+01 0.0000e+00
      0.098    27.2277     9.4792    119.828  38.018828     36.450      8.389   197.7543     3.8253     2.1659     0.0248      0.034      0.097      0.142        197 4.8843e+01 0.0000e+00
      0.093    27.2917     9.4721    119.682  38.093537     36.470      8.386   205.8179     3.8132     2.1927     0.0248      0.030      0.090      0.132        198 4.9938e+01 0.0000e+00
      0.085    27.3272     9.4603    119.335  38.190514     36.577      8.386   205.8936     3.8051     2.0853     0.0249      0.021      0.085      0.124        199 5.0986e+01 0.0000e+00
      0.083    27.3228     9.4374    118.886  38.165073     36.477      8.389   205.4772     3.7970     2.1659     0.0248      0.008      0.085      0.124        200 5.1356e+01 0.0000e+00
      0.091    27.2986     9.4311    118.730  38.095510     36.400      8.387   205.3258     3.8011     2.2196     0.0248     -0.004      0.094      0.136        201 5.1525e+01 0.0000e+00
      0.112    27.2532     9.4257    118.637  38.099099     36.403      8.386   205.2879     3.8213     1.9645     0.0248     -0.007      0.109      0.157        202 5.0921e+01 0.0000e+00
      0.128    27.2125     9.4298    118.702  38.012300     36.339      8.373   206.4994     3.7930     1.9913     0.0248      0.002      0.120      0.174        203 4.6928e+01 0.0000e+00
      0.127    27.2115     9.4420    118.885  37.966253     36.318      8.352   206.6508     3.8577     1.9779     0.0248      0.014      0.120      0.174        204 4.7948e+01 0.0000e+00
      0.114    27.2593     9.4762    119.334  38.037780     36.427      8.346   207.2565     3.8091     1.9376     0.0248      0.018      0.110      0.159        205 5.3186e+01 0.0000e+00
      0.094    27.3378     9.5185    119.880  38.101270     36.481      8.355   206.4994     3.7970     2.1390     0.0248      0.014      0.097      0.140        206 5.5246e+01 0.0000e+00
      0.088    27.3966     9.5419    120.175  38.154191     36.501      8.362   206.3479     3.8051     2.2196     0.0248      0.007      0.093      0.134        207 5.2494e+01 0.0000e+00
      0.101    27.3708     9.5666    120.490  38.209189     36.499      8.370   205.5529     3.8294     2.1256     0.0249      0.001      0.104      0.152        208 4.7619e+01 0.0000e+00
      0.131    27.2799     9.5838    120.690  38.121775     36.377      8.375   206.2344     3.8011     2.1256     0.0248      0.001      0.129      0.187        209 4.6761e+01 0.0000e+00
      0.161    27.2043     9.5888    120.665  37.966342     36.235      8.375   199.4579     3.8577     1.9645     0.0248      0.008      0.153      0.222        210 4.4338e+01 0.0000e+00
      0.174    27.1678     9.5779    120.370  37.957716     36.300      8.365   198.1708     3.8698     2.0316     0.0248      0.021      0.170      0.247        211 4.1751e+01 0.0000e+00
      0.186    27.1563     9.5547    119.959  37.954580     36.352      8.358   198.1329     3.8738     2.0584     0.0248      0.039      0.181      0.264        212 4.0689e+01 0.0000e+00
      0.195    27.1627     9.5433    119.737  37.970283     36.377      8.350   197.2243     3.8819     2.1122     0.0248      0.054      0.190      0.277        213 4.0104e+01 0.0000e+00
      0.202    27.1755     9.5320    119.557  38.056840     36.492      8.351   196.4293     3.9224     2.1122     0.0248      0.063      0.200      0.289        214 3.9730e+01 0.0000e+00
      0.214    27.1852     9.5204    119.391  37.965513     36.381      8.355   196.2022     3.9385     2.1390     0.0248      0.063      0.210      0.304        215 3.9624e+01 0.0000e+00
      0.226    27.1904     9.5076    119.212  37.965290     36.371      8.360   196.4293     3.9143     2.1390     0.0248      0.056      0.220      0.319        216 4.1092e+01 0.0000e+00
      0.232    27.1916     9.4975    119.077  38.027450     36.446      8.359   196.8458     3.9547     2.2599     0.0248      0.045      0.226      0.328        217 4.2515e+01 0.0000e+00
      0.233    27.1930     9.4914    118.981  37.977136     36.361      8.359   196.9215     3.8213     2.1927     0.0248      0.037      0.228      0.330        218 4.4044e+01 0.0000e+00
      0.231    27.1857     9.5000    119.048  38.027902     36.441      8.362   196.6943     3.8132     2.0987     0.0248      0.031      0.231      0.335        219 4.6604e+01 0.0000e+00
      0.240    27.1431     9.5141    119.164  38.023592     36.413      8.368   196.6943     3.8091     2.1122     0.0248      0.027      0.245      0.355        220 4.7976e+01 0.0000e+00
      0.280    27.0725     9.5188    119.175  37.893517     36.311      8.370   196.8079     3.7768     2.0584     0.0247      0.033      0.272      0.394        221 4.6500e+01 0.0000e+00
      0.309    27.0150     9.5352    119.311  37.863516     36.286      8.370   196.5808     3.7970     2.1659     0.0247      0.043      0.300      0.434        222 4.7618e+01 0.0000e+00
      0.327    26.9795     9.5604    119.523  37.823663     36.337      8.381   196.4293     3.8294     2.1390     0.0247      0.053      0.320      0.464        223 4.8693e+01 0.0000e+00
      0.344    26.9612     9.5610    119.460  37.765180     36.269      8.389   196.3915     3.8051     2.1793     0.0247      0.063      0.335      0.487        224 4.9003e+01 0.0000e+00
      0.355    26.9515     9.5459    119.228  37.817683     36.402      8.397   196.8458     3.8051     2.1122     0.0247      0.071      0.347      0.504        225 4.9941e+01 0.0000e+00
      0.364    26.9435     9.5253    119.005  37.817666     36.360      8.407   196.7700     3.7930     2.0450     0.0247      0.075      0.357      0.519        226 5.0169e+01 0.0000e+00
      0.375    26.9390     9.5082    118.798  37.824535     36.421      8.415   197.1865     4.0720     2.1659     0.0247      0.074      0.369      0.534        227 5.0995e+01 0.0000e+00
      0.389    26.9302     9.4876    118.456  37.809140     36.373      8.421   197.4893     4.0720     2.1793     0.0247      0.066      0.383      0.554        228 5.1652e+01 0.0000e+00
      0.405    26.9107     9.4630    118.028  37.777505     36.376      8.427   197.7543     4.0720     2.0987     0.0247      0.056      0.397      0.576        229 5.2573e+01 0.0000e+00
      0.419    26.8830     9.4309    117.535  37.745264     36.328      8.431   197.9058     4.0639     2.2062     0.0247      0.051      0.411      0.596        230 5.3736e+01 0.0000e+00
      0.432    26.8600     9.4149    117.268  37.730626     36.342      8.438   198.0572     4.5693     2.1122     0.0247      0.050      0.424      0.615        231 5.4492e+01 0.0000e+00
      0.445    26.8266     9.4139    117.212  37.736410     36.362      8.445   198.4736     4.5653     2.0584     0.0247      0.051      0.437      0.634        232 5.4874e+01 0.0000e+00
      0.461    26.7811     9.4158    117.220  37.678758     36.324      8.447   198.7765     4.5774     2.1524     0.0247      0.053      0.451      0.654        233 5.5439e+01 0.0000e+00
      0.472    26.7458     9.3898    116.895  37.624424     36.292      8.453   198.8522     4.5693     2.0719     0.0247      0.054      0.463      0.672        234 5.6059e+01 0.0000e+00
      0.483    26.7286     9.3552    116.481  37.626082     36.326      8.451   199.1929     4.8726     2.1524     0.0247      0.053      0.473      0.687        235 5.6494e+01 0.0000e+00
      0.493    26.7415     9.3187    116.036  37.617394     36.349      8.455   199.3822     4.8645     2.1524     0.0247      0.051      0.483      0.701        236 5.6723e+01 0.0000e+00
      0.503    26.7457     9.2989    115.803  37.635253     36.363      8.457   199.7229     4.8888     2.2464     0.0247      0.048      0.494      0.716        237 5.6306e+01 0.0000e+00
      0.514    26.7056     9.2928    115.740  37.603866     36.352      8.455   200.4801     4.9050     2.0719     0.0247      0.046      0.506      0.734        238 5.5727e+01 0.0000e+00
      0.529    26.6498     9.2901    115.706  37.508152     36.214      8.455   200.4422     4.8645     2.0987     0.0246      0.046      0.520      0.754        239 5.5579e+01 0.0000e+00
      0.545    26.6055     9.3037    115.846  37.457763     36.243      8.455   200.5936     4.8726     2.1122     0.0246      0.046      0.535      0.775        240 5.5180e+01 0.0000e+00
      0.560    26.5733     9.3255    116.088  37.458968     36.228      8.453   201.0101     4.8726     2.1524     0.0246      0.048      0.550      0.798        241 5.4671e+01 0.0000e+00
      0.577    26.5532     9.3457    116.317  37.506679     36.367      8.453   201.0858     4.8524     2.0853     0.0246      0.051      0.565      0.819        242 5.4701e+01 0.0000e+00
      0.589    26.5451     9.3559    116.427  37.457732     36.282      8.449   201.1615     5.1476     2.0853     0.0246      0.054      0.577      0.837        243 5.4408e+01 0.0000e+00
      0.601    26.5456     9.3650    116.524  37.460578     36.350      8.449   201.6536     5.1233     2.1659     0.0246      0.056      0.587      0.852        244 5.4217e+01 0.0000e+00
      0.606    26.5523     9.3674    116.548  37.443825     36.301      8.447   201.6536     5.1314     2.1390     0.0246      0.054      0.593      0.860        245 5.4398e+01 0.0000e+00
      0.606    26.5577     9.3712    116.582  37.478585     36.356      8.445   201.7672     5.1395     2.0719     0.0246      0.048      0.595      0.862        246 5.4635e+01 0.0000e+00
      0.607    26.5638     9.3587    116.419  37.535962     36.404      8.447   201.9186     5.1152     2.1390     0.0246      0.040      0.596      0.864        247 5.4637e+01 0.0000e+00
      0.609    26.5706     9.3558    116.381  37.491060     36.347      8.445   202.0322     5.5156     2.1659     0.0246      0.031      0.600      0.869        248 5.4206e+01 0.0000e+00
      0.619    26.5691     9.3586    116.415  37.475142     36.342      8.448   201.7293     5.4873     2.1524     0.0246      0.024      0.610      0.884        249 5.3498e+01 0.0000e+00
      0.638    26.5562     9.3727    116.586  37.437127     36.284      8.452   202.2593     5.5236     2.1390     0.0246      0.023      0.625      0.907        250 5.2731e+01 0.0000e+00
      0.654    26.5417     9.3823    116.700  37.419724     36.284      8.454   202.4108     5.4994     2.1793     0.0246      0.026      0.641      0.930        251 5.2337e+01 0.0000e+00
      0.668    26.5315     9.3933    116.838  37.437478     36.294      8.455   202.5243     5.4792     2.1122     0.0246      0.032      0.655      0.950        252 5.2065e+01 0.0000e+00
      0.682    26.5227     9.3992    116.921  37.474360     36.358      8.452   202.5622     5.5277     2.0584     0.0246      0.040      0.669      0.971        253 5.1610e+01 0.0000e+00
      0.698    26.5160     9.4024    116.964  37.433155     36.311      8.453   202.5243     5.5115     2.1256     0.0246      0.049      0.685      0.993        254 5.0770e+01 0.0000e+00
      0.715    26.5123     9.4069    117.007  37.429441     36.317      8.454   202.6001     5.5034     2.1927     0.0246      0.056      0.701      1.016        255 5.0094e+01 0.0000e+00
      0.729    26.5068     9.4021    116.931  37.419664     36.322      8.451   203.2436     5.4589     2.2196     0.0246      0.060      0.714      1.035        256 4.9662e+01 0.0000e+00
      0.739    26.5024     9.3928    116.797  37.386006     36.270      8.449   203.1679     5.4792     2.1524     0.0246      0.059      0.725      1.051        257 4.9073e+01 0.0000e+00
      0.750    26.5018     9.3822    116.654  37.412012     36.329      8.446   203.0922     5.4630     2.1524     0.0246      0.056      0.736      1.067        258 4.8617e+01 0.0000e+00
      0.761    26.5009     9.3763    116.579  37.446624     36.332      8.449   203.1301     5.4509     2.1659     0.0246      0.054      0.747      1.083        259 4.8109e+01 0.0000e+00
      0.773    26.4990     9.3762    116.589  37.461575     36.386      8.449   203.5844     5.4509     2.1122     0.0246      0.052      0.758      1.099        260 4.7816e+01 0.0000e+00
      0.785    26.4966     9.3858    116.713  37.393407     36.278      8.450   203.5086     5.4266     2.0987     0.0246      0.049      0.768      1.115        261 4.7472e+01 0.0000e+00
      0.793    26.4970     9.3977    116.863  37.412817     36.334      8.451   203.3572     5.4347     2.0987     0.0246      0.046      0.777      1.128        262 4.7000e+01 0.0000e+00
      0.800    26.5018     9.4159    117.086  37.378100     36.281      8.449   203.5844     5.4468     2.0719     0.0246      0.042      0.785      1.139        263 4.6671e+01 0.0000e+00
      0.809    26.5031     9.4442    117.432  37.377293     36.281      8.453   203.3951     5.5075     2.1390     0.0246      0.040      0.796      1.154        264 4.6039e+01 0.0000e+00
      0.825    26.4975     9.4582    117.594  37.473142     36.386      8.455   203.8494     5.5034     2.1927     0.0246      0.041      0.811      1.177        265 4.5301e+01 0.0000e+00
      0.850    26.4891     9.4725    117.760  37.436777     36.331      8.456   204.1901     5.5236     2.1390     0.0246      0.044      0.831      1.206        266 4.4627e+01 0.0000e+00
      0.867    26.4806     9.4858    117.907  37.363227     36.281      8.459   203.6601     5.5034     2.0987     0.0246      0.049      0.848      1.231        267 4.4084e+01 0.0000e+00
      0.879    26.4750     9.4918    117.930  37.386714     36.287      8.460   203.8872     5.5115     2.0450     0.0246      0.053      0.862      1.252        268 4.3618e+01 0.0000e+00
      0.894    26.4752     9.4886    117.821  37.407553     36.347      8.461   203.8872     5.5762     2.1256     0.0246      0.057      0.876      1.271        269 4.2952e+01 0.0000e+00
      0.907    26.4795     9.4819    117.714  37.337299     36.242      8.465   204.2658     5.5560     2.1256     0.0245      0.060      0.889      1.290        270 4.2417e+01 0.0000e+00
      0.919    26.4823     9.4720    117.595  37.355506     36.297      8.462   204.0765     5.6005     2.2062     0.0246      0.061      0.901      1.307        271 4.2022e+01 0.0000e+00
      0.931    26.4830     9.4660    117.509  37.325574     36.239      8.460   204.1522     5.5722     2.1122     0.0245      0.060      0.913      1.325        272 4.1572e+01 0.0000e+00
      0.945    26.4819     9.4559    117.371  37.315226     36.238      8.459   204.3036     5.5479     2.2733     0.0245      0.056      0.926      1.344        273 4.1164e+01 0.0000e+00
      0.959    26.4787     9.4625    117.421  37.309062     36.237      8.460   204.4172     5.5803     2.3673     0.0245      0.052      0.940      1.363        274 4.0745e+01 0.0000e+00
      0.970    26.4732     9.4782    117.561  37.273926     36.184      8.454   204.6444     5.5641     2.3539     0.0245      0.051      0.952      1.381        275 4.0346e+01 0.0000e+00
      0.984    26.4675     9.4954    117.714  37.299633     36.240      8.451   204.9472     5.5641     2.3807     0.0245      0.051      0.964      1.399        276 4.0022e+01 0.0000e+00
      0.995    26.4587     9.5059    117.741  37.277070     36.189      8.453   204.7201     5.6490     2.3941     0.0245      0.050      0.979      1.420        277 3.9574e+01 0.0000e+00
      1.017    26.4341     9.5051    117.621  37.302008     36.248      8.452   205.0608     5.6328     2.3404     0.0245      0.052      0.999      1.450        278 3.8830e+01 0.0000e+00
      1.047    26.4028     9.4852    117.304  37.268603     36.200      8.441   205.6286     5.6328     2.4076     0.0245      0.058      1.020      1.480        279 3.8281e+01 0.0000e+00
      1.057    26.3910     9.4591    116.949  37.200009     36.162      8.429   205.3636     5.6490     2.3136     0.0245      0.062      1.033      1.499        280 3.8117e+01 0.0000e+00
      1.059    26.3922     9.4307    116.574  37.209423     36.185      8.422   205.4015     5.6409     2.3673     0.0245      0.061      1.039      1.508        281 3.7910e+01 0.0000e+00
      1.067    26.3876     9.4013    116.198  37.197579     36.193      8.415   205.5151     5.6369     2.3270     0.0245      0.059      1.046      1.519        282 3.7419e+01 0.0000e+00
      1.077    26.3813     9.3692    115.804  37.214757     36.192      8.411   205.6665     5.6450     2.3673     0.0245      0.055      1.056      1.533        283 3.7078e+01 0.0000e+00
      1.088    26.3661     9.3526    115.609  37.188048     36.195      8.407   205.5529     5.6328     2.3673     0.0245      0.051      1.067      1.548        284 3.6887e+01 0.0000e+00
      1.099    26.3414     9.3542    115.644  37.171498     36.145      8.402   205.7801     5.5924     2.0987     0.0245      0.046      1.078      1.565        285 3.6719e+01 0.0000e+00
      1.113    26.3116     9.3714    115.869  37.176038     36.210      8.396   205.8179     5.5843     2.1524     0.0245      0.041      1.092      1.585        286 3.6597e+01 0.0000e+00
      1.131    26.2639     9.3915    116.128  37.093427     36.092      8.394   206.4994     5.5398     2.1659     0.0244      0.040      1.110      1.611        287 3.6320e+01 0.0000e+00
      1.154    26.2123     9.4054    116.308  37.126019     36.194      8.388   206.6129     5.5317     2.1122     0.0245      0.047      1.132      1.641        288 3.6039e+01 0.0000e+00
      1.176    26.1796     9.4153    116.420  37.076176     36.147      8.383   207.2565     5.5722     2.1659     0.0245      0.056      1.155      1.674        289 3.5712e+01 0.0000e+00
      1.202    26.1634     9.4257    116.522  37.066500     36.183      8.374   208.1651     5.6369     2.4479     0.0245      0.065      1.177      1.707        290 3.5250e+01 0.0000e+00
      1.222    26.1525     9.4404    116.658  37.138084     36.288      8.361   208.4679     5.6530     2.3270     0.0245      0.073      1.197      1.736        291 3.4919e+01 0.0000e+00
      1.237    26.1465     9.4408    116.594  37.076087     36.217      8.354   208.7708     5.6247     2.3136     0.0245      0.078      1.212      1.758        292 3.4678e+01 0.0000e+00
      1.250    26.1477     9.4313    116.428  37.054684     36.225      8.346   208.6194     5.6247     2.2733     0.0245      0.079      1.226      1.778        293 3.4275e+01 0.0000e+00
      1.262    26.1528     9.4180    116.241  37.075746     36.229      8.346   208.5815     6.0938     2.3136     0.0245      0.076      1.237      1.794        294 3.3917e+01 0.0000e+00
      1.272    26.1599     9.3986    116.012  37.138858     36.311      8.339   208.7329     6.0857     2.3002     0.0245      0.070      1.246      1.806        295 3.3835e+01 0.0000e+00
      1.275    26.1658     9.3836    115.834  37.154101     36.307      8.337   208.0136     6.0372     2.3404     0.0245      0.060      1.252      1.815        296 3.3727e+01 0.0000e+00
      1.283    26.1709     9.3706    115.675  37.145754     36.302      8.342   208.6194     6.0655     2.2330     0.0245      0.050      1.260      1.827        297 3.3300e+01 0.0000e+00
      1.296    26.1745     9.3582    115.508  37.149242     36.298      8.338   208.6194     6.0251     2.5150     0.0245      0.043      1.270      1.842        298 3.3039e+01 0.0000e+00
      1.306    26.1696     9.3608    115.536  37.149758     36.294      8.339   209.1494     6.0210     2.4747     0.0245      0.039      1.280      1.857        299 3.2937e+01 0.0000e+00
      1.315    26.1572     9.3637    115.576  37.204431     36.346      8.338   209.2629     6.0251     2.5687     0.0245      0.036      1.288      1.869        300 3.2817e+01 0.0000e+00
      1.320    26.1344     9.3647    115.594  37.259162     36.404      8.336   209.4144     6.0089     2.5016     0.0245      0.034      1.296      1.880        301 3.2666e+01 0.0000e+00
      1.331    26.1040     9.3649    115.586  37.318928     36.468      8.337   209.9444     6.2394     2.3002     0.0246      0.034      1.306      1.894        302 3.2327e+01 0.0000e+00
      1.344    26.0796     9.3565    115.476  37.426661     36.593      8.336   210.0201     6.2596     2.2867     0.0246      0.036      1.316      1.908        303 3.2100e+01 0.0000e+00
      1.348    26.0698     9.3429    115.335  37.481024     36.670      8.332   209.6037     6.2960     2.3404     0.0246      0.037      1.321      1.916        304 3.2010e+01 0.0000e+00
      1.349    26.0737     9.3282    115.186  37.429249     36.632      8.330   210.7015     6.2596     2.3404     0.0246      0.034      1.323      1.920        305 3.1767e+01 0.0000e+00
      1.352    26.0785     9.3201    115.106  37.372465     36.586      8.328   209.6794     6.6478     2.3673     0.0246      0.029      1.327      1.925        306 3.1548e+01 0.0000e+00
      1.359    26.0776     9.3208    115.135  37.373735     36.581      8.326   209.1872     6.6316     2.3539     0.0246      0.026      1.333      1.933        307 3.1331e+01 0.0000e+00
      1.366    26.0721     9.3249    115.184  37.427668     36.634      8.325   208.7708     6.6437     2.3136     0.0246      0.024      1.339      1.942        308 3.0967e+01 0.0000e+00
      1.371    26.0695     9.3426    115.367  37.423987     36.633      8.327   209.1494     6.6397     2.2464     0.0246      0.022      1.344      1.948        309 3.0764e+01 0.0000e+00
      1.372    26.0721     9.3629    115.414  37.378318     36.584      8.325   209.1115     6.6356     2.2599     0.0246      0.019      1.345      1.951        310 3.0533e+01 0.0000e+00
      1.373    26.0738     9.3427    114.904  37.365864     36.585      8.324   209.3387     6.6316     2.3136     0.0246      0.016      1.346      1.953        311 3.0183e+01 0.0000e+00
      1.374    26.0693     9.2648    113.684  37.380165     36.584      8.322   209.1115     6.6276     2.3673     0.0246      0.015      1.348      1.955        312 2.9906e+01 0.0000e+00
      1.376    26.0668     9.0821    111.175  37.419839     36.636      8.321   209.1872     6.6356     2.2196     0.0246      0.014      1.350      1.957        313 2.9725e+01 0.0000e+00
      1.377    26.0795     8.7943    107.441  37.435131     36.640      8.321   209.9065     6.6478     2.2464     0.0246      0.011      1.351      1.960        314 2.9568e+01 0.0000e+00
      1.380    26.0937     8.4621    103.212  37.420456     36.642      8.320   209.6037     6.7003     2.0450     0.0246      0.009      1.353      1.963        315 2.9362e+01 0.0000e+00
      1.383    26.1054     8.0918     98.573  37.438102     36.633      8.319   209.3765     6.7287     2.0182     0.0246      0.007      1.355      1.965        316 2.9185e+01 0.0000e+00
      1.381    26.1122     7.7197     93.918  37.413167     36.622      8.316   209.9822     6.7003     2.0987     0.0246      0.006      1.355      1.965        317 2.9004e+01 0.0000e+00
      1.380    26.1145     7.3565     89.299  37.451481     36.615      8.313   210.1715     6.7003     2.1256     0.0246      0.005      1.355      1.964        318 2.8861e+01 0.0000e+00
      1.381    26.0928     7.0565     85.533  37.390414     36.608      8.308   209.9444     6.6518     2.0987     0.0246      0.004      1.360      1.972        319 2.8675e+01 0.0000e+00
      1.401    25.9998     6.7986     82.397  37.548478     36.663      8.304   210.2472     6.6518     2.1390     0.0246      0.008      1.375      1.995        320 2.8487e+01 0.0000e+00
      1.424    25.8737     6.5888     79.832  38.263246     37.496      8.297   210.5879     6.6316     2.0853     0.0250      0.017      1.396      2.025        321 2.8421e+01 0.0000e+00
      1.444    25.7471     6.4416     77.963  38.666180     37.869      8.294   211.0801     6.6518     2.1390     0.0251      0.028      1.417      2.056        322 2.8127e+01 0.0000e+00
      1.469    25.6172     6.3480     76.689  38.975083     38.319      8.283   211.1179     6.9713     2.3136     0.0252      0.042      1.440      2.088        323 2.7870e+01 0.0000e+00
      1.492    25.5087     6.3034     76.076  39.302678     38.717      8.277   212.0644     6.9713     2.3270     0.0254      0.057      1.463      2.121        324 2.7782e+01 0.0000e+00
      1.513    25.4184     6.2759     75.717  39.326421     38.845      8.269   212.2915     6.9874     2.3404     0.0254      0.071      1.484      2.152        325 2.7595e+01 0.0000e+00
      1.534    25.3514     6.2393     75.260  39.271897     38.873      8.262   212.7458     6.9187     2.2733     0.0254      0.081      1.506      2.184        326 2.7414e+01 0.0000e+00
      1.560    25.2777     6.2151     74.921  39.340928     38.998      8.238   213.2758     8.2369     2.7164     0.0254      0.088      1.530      2.218        327 2.7264e+01 0.0000e+00
      1.585    25.1597     6.1904     74.503  39.507531     39.245      8.203   214.0708     8.2288     2.8238     0.0255      0.089      1.554      2.253        328 2.7188e+01 0.0000e+00
      1.608    25.0808     6.1665     74.048  39.479891     39.244      8.171   214.6008     8.2288     2.7433     0.0255      0.090      1.575      2.284        329 2.7112e+01 0.0000e+00
      1.624    25.0706     6.0789     72.904  39.405035     39.284      8.141   214.7901     8.2369     2.7567     0.0255      0.089      1.594      2.311        330 2.7120e+01 0.0000e+00
      1.643    25.0580     5.8519     70.170  39.393097     39.318      8.111   215.1308     8.2369     2.7164     0.0254      0.087      1.614      2.340        331 2.7078e+01 0.0000e+00
      1.669    24.9956     5.4745     65.535  39.376130     39.324      8.078   215.6987     8.5806     3.3878     0.0254      0.087      1.637      2.374        332 2.6970e+01 0.0000e+00
      1.694    24.9007     5.0334     60.104  39.099870     39.056      8.046   216.0394     8.6049     3.4684     0.0253      0.087      1.661      2.408        333 2.6923e+01 0.0000e+00
      1.716    24.8448     4.5338     54.006  38.817362     38.795      8.012   216.3801     8.6211     3.3475     0.0252      0.087      1.683      2.442        334 2.6812e+01 0.0000e+00
      1.740    24.8266     3.9523     46.987  38.867517     38.957      7.981   216.4558     8.6089     3.4684     0.0253      0.087      1.704      2.473        335 2.6816e+01 0.0000e+00
      1.759    24.8141     3.2538     38.622  38.918843     39.026      7.956   216.5694     7.4444     3.2938     0.0253      0.087      1.724      2.501        336 2.6808e+01 0.0000e+00
      1.777    24.7799     2.4866     29.473  38.990820     39.125      7.930   216.6830     7.4727     3.4012     0.0253      0.086      1.743      2.527        337 2.6664e+01 0.0000e+00
      1.794    24.6924     1.7636     20.864  38.985596     39.134      7.907   217.2887     7.4848     3.4952     0.0253      0.085      1.762      2.554        338 2.6552e+01 0.0000e+00
      1.817    24.5719     1.0923     12.902  38.925353     39.076      7.882   218.4623     7.4605     3.3878     0.0253      0.084      1.782      2.584        339 2.6491e+01 0.0000e+00
      1.839    24.5070     0.6024      7.111  39.036150     39.286      7.855   218.3487     5.5641     3.9652     0.0253      0.081      1.802      2.614        340 2.6359e+01 0.0000e+00
      1.856    24.4897     0.2244      2.649  39.055394     39.382      7.832   219.4844     5.5762     3.9249     0.0253      0.079      1.821      2.641        341 2.6169e+01 0.0000e+00
      1.876    24.4053    -0.0226     -0.266  39.109099     39.493      7.813   220.3173     5.5762     4.0592     0.0254      0.078      1.843      2.672        342 2.5995e+01 0.0000e+00
      1.905    24.2690    -0.1497     -1.761  39.147331     39.557      7.789   222.3994     5.5600     4.1264     0.0254      0.079      1.869      2.711        343 2.5733e+01 0.0000e+00
      1.936    24.1406    -0.1714     -2.010  39.007839     39.459      7.763   222.9294     6.1059     3.7638     0.0253      0.085      1.897      2.751        344 2.5422e+01 0.0000e+00
      1.961    24.0339    -0.1292     -1.509  39.045434     39.623      7.737   223.6487     6.1302     3.8309     0.0254      0.090      1.921      2.786        345 2.5155e+01 0.0000e+00
      1.980    23.9507    -0.0508     -0.591  39.041285     39.729      7.712   224.1408     6.1221     3.8309     0.0254      0.093      1.942      2.816        346 2.4893e+01 0.0000e+00
      2.001    23.8698     0.0086      0.099  39.013071     39.757      7.689   224.5573     6.1261     3.8309     0.0254      0.093      1.963      2.846        347 2.4465e+01 0.0000e+00
      2.023    23.7722     0.0383      0.442  39.139930     39.997      7.664   224.8980     5.8512     3.8444     0.0254      0.094      1.983      2.876        348 2.4073e+01 0.0000e+00
      2.042    23.6867     0.0428      0.492  38.913122     39.804      7.639   224.9737     5.7865     3.7772     0.0253      0.093      2.003      2.905        349 2.3791e+01 0.0000e+00
      2.062    23.6547     0.0475      0.545  38.702120     39.656      7.615   225.1630     5.8431     3.8175     0.0252      0.089      2.023      2.933        350 2.3457e+01 0.0000e+00
      2.083    23.6574     0.0494      0.564  38.749987     39.812      7.586   226.2608     5.8188     3.8444     0.0253      0.085      2.043      2.963        351 2.3053e+01 0.0000e+00
      2.104    23.6165     0.0430      0.491  38.705281     39.752      7.560   226.3744     6.0655     3.7101     0.0253      0.081      2.065      2.995        352 2.2581e+01 0.0000e+00
      2.130    23.4718     0.0512      0.582  38.283182     39.375      7.530   226.9044     6.0857     3.6027     0.0251      0.082      2.089      3.030        353 2.2102e+01 0.0000e+00
      2.158    23.2836     0.0636      0.722  38.118470     39.120      7.503   227.2830     6.0534     3.5221     0.0250      0.085      2.116      3.069        354 2.1618e+01 0.0000e+00
      2.185    23.1071     0.0755      0.855  38.613675     39.900      7.479   227.8508     6.0534     3.6027     0.0253      0.089      2.145      3.111        355 2.1090e+01 0.0000e+00
      2.220    22.9053     0.1041      1.173  40.484968     41.766      7.453   228.4944     6.0493     3.5758     0.0260      0.095      2.179      3.160        356 2.0278e+01 0.0000e+00
      2.261    22.6718     0.1290      1.445  47.597545     49.384      7.423   229.0623     6.0857     3.5624     0.0291      0.105      2.216      3.214        357 1.9390e+01 0.0000e+00
      2.299    22.4442     0.1544      1.723  54.747122     57.447      7.396   229.0244     6.0857     3.6967     0.0325      0.116      2.253      3.267        358 1.8713e+01 0.0000e+00
      2.331    22.2505     0.1839      2.045  58.595421     61.101      7.365   229.5923     6.0938     3.4818     0.0341      0.124      2.284      3.312        359 1.8297e+01 0.0000e+00
      2.358    22.0919     0.2049      2.272  62.491137     66.234      7.327   229.1380     6.0817     3.5490     0.0362      0.129      2.311      3.351        360 1.7964e+01 0.0000e+00
      2.380    21.9563     0.2196      2.433  67.389581     70.826      7.285   229.1759     5.6935     3.5758     0.0382      0.129      2.334      3.384        361 1.7576e+01 0.0000e+00
      2.401    21.8316     0.2267      2.516  74.509523     79.539      7.235   228.7216     5.7016     3.5758     0.0420      0.124      2.354      3.415        362 1.7266e+01 0.0000e+00
      2.421    21.7003     0.2270      2.524  79.656710     84.536      7.190   220.3930     5.7218     3.5892     0.0442      0.116      2.375      3.446        363 1.6915e+01 0.0000e+00
      2.446    21.5776     0.2153      2.395  85.055528     90.895      7.139   209.8687     5.7056     3.5758     0.0470      0.107      2.400      3.482        364 1.6446e+01 0.0000e+00
      2.477    21.4332 -9.990e-29 -9.990e-29  88.242412     94.686      7.092   198.3979     5.5398     3.9921     0.0486      0.100      2.430      3.525        365 1.5725e+01 0.0000e+00
      2.511    21.1934 -9.990e-29 -9.990e-29  91.983788     98.162      7.032   194.0443     5.4953     3.9786     0.0501      0.098      2.460      3.568        366 1.5117e+01 0.0000e+00
      2.537    20.9276 -9.990e-29 -9.990e-29 100.534818    108.865      6.970   191.5836     5.4994     4.0324     0.0549      0.100      2.485      3.604        367 1.4840e+01 0.0000e+00
      2.553    20.7080 -9.990e-29 -9.990e-29 103.956820    112.145      6.920   189.3879     5.5034     4.0324     0.0564      0.100      2.502      3.629        368 1.4666e+01 0.0000e+00
      2.564    20.5291 -9.990e-29 -9.990e-29 104.207358    113.739      6.881   186.1700     4.8079     4.3949     0.0570      0.098      2.514      3.646        369 1.4517e+01 0.0000e+00
      2.574    20.4002 -9.990e-29 -9.990e-29 105.847591    115.451      6.854   183.7093     4.8281     4.4486     0.0578      0.091      2.523      3.659        370 1.4432e+01 0.0000e+00
      2.579    20.3663 -9.990e-29 -9.990e-29 104.713290    115.506      6.830   181.6650     4.8241     4.3681     0.0577      0.081      2.530      3.670        371 1.4324e+01 0.0000e+00
      2.586    20.4429 -9.990e-29 -9.990e-29 105.648979    115.493      6.813   179.3936     4.8281     4.4218     0.0577      0.067      2.538      3.681        372 1.4018e+01 0.0000e+00
      2.598    20.5336 -9.990e-29 -9.990e-29 102.629895    114.537      6.798   174.5100     4.5006     4.6903     0.0573      0.053      2.548      3.695        373 1.3649e+01 0.0000e+00
      2.610    20.5662 -9.990e-29 -9.990e-29 105.226810    113.405      6.779   168.9071     4.5168     4.6098     0.0568      0.043      2.559      3.710        374 1.3258e+01 0.0000e+00
      2.618 -9.990e-29 -9.990e-29 -9.990e-29 114.205780    128.275      6.764   165.4242     4.5249     4.5963     0.0636      0.037      2.566      3.720        375 1.3007e+01 0.0000e+00
      2.620 -9.990e-29 -9.990e-29 -9.990e-29 114.524428    122.791      6.745   163.3799     4.5006     4.6098     0.0611      0.034      2.568      3.724        376 1.2963e+01 0.0000e+00
